LabVIEW Measurement,
Writer_Version,2
Reader_Version,2
Separator,Comma
Decimal_Separator,.
Multi_Headings,No
X_Columns,One
Time_Pref,Absolute
Operator,Kagawa-unit
Date,2019/04/10
Time,14:36:44.0848016738891601563
***End_of_Header***,
,
Channels,6,,,,,,
Samples,1,1,1,1,1,1,
Date,2019/04/10,2019/04/10,2019/04/10,2019/04/10,2019/04/10,2019/04/10,
Time,14:36:44.0848016738891601563,14:36:48.2726831436157226563,14:36:45.4082345962524414063,14:36:44.41534423828125,14:36:45.5443544387817382813,14:36:45.4082345962524414063,
X_Dimension,Time,Time,Time,Time,Time,Time,
X0,0.0000000000000000E+0,0.0000000000000000E+0,0.0000000000000000E+0,0.0000000000000000E+0,0.0000000000000000E+0,0.0000000000000000E+0,
Delta_X,1.000000,1.000000,1.000000,1.000000,1.000000,1.000000,
***End_of_Header***,,,,,,,
X_Value,Untitled,Untitled 1,Untitled 2,Untitled 3,Untitled 4,Untitled 5,Comment
0.000000,-0.500000,-0.499147,-0.092456,-0.000212,1.150000E-9,435.804670
4.206702,-0.500000,-0.499147,-0.093204,-0.000213,-2.200000E-9,438.440417
8.417017,-0.500000,-0.499147,-0.092268,-0.000212,1.910000E-9,434.860090
12.615414,-0.500000,-0.499147,-0.093392,-0.000212,-1.110000E-9,440.351312
16.851108,-0.500000,-0.499147,-0.093335,-0.000212,-9.900000E-10,440.133826
21.046789,-0.500000,-0.499147,-0.093301,-0.000212,-1.080000E-9,439.551015
25.242441,-0.499000,-0.497133,-0.093254,-0.000212,6.000000E-11,438.930002
29.447920,-0.498000,-0.497194,-0.093443,-0.000212,5.600000E-10,440.499919
33.656347,-0.497000,-0.495180,-0.093730,-0.000212,7.200000E-10,442.938513
37.862212,-0.496000,-0.495180,-0.094049,-0.000211,-1.430000E-9,445.782631
42.073268,-0.495000,-0.493166,-0.093939,-0.000211,-2.900000E-10,444.384881
46.289197,-0.494000,-0.493166,-0.094053,-0.000210,-1.240000E-9,447.066355
50.492350,-0.493000,-0.491152,-0.093979,-0.000211,-2.220000E-9,445.810858
54.707700,-0.492000,-0.491152,-0.093706,-0.000210,1.900000E-10,446.725500
58.904580,-0.491000,-0.489199,-0.093913,-0.000209,2.000000E-10,448.775894
63.124282,-0.490000,-0.489199,-0.094123,-0.000209,4.400000E-10,451.191532
67.336250,-0.489000,-0.487185,-0.094384,-0.000209,-2.240000E-9,451.745650
71.543329,-0.488000,-0.487185,-0.094108,-0.000208,-4.000000E-10,453.183970
75.739744,-0.487000,-0.485170,-0.094198,-0.000207,-4.400000E-10,454.103245
79.938623,-0.486000,-0.485170,-0.094279,-0.000207,-2.310000E-9,455.791371
84.133969,-0.485000,-0.483156,-0.093988,-0.000207,-1.250000E-9,453.864657
88.344754,-0.484000,-0.483156,-0.093918,-0.000206,-2.160000E-9,454.944589
92.565626,-0.483000,-0.481203,-0.093660,-0.000206,7.000000E-10,454.781022
96.771977,-0.482000,-0.481203,-0.093964,-0.000205,-2.900000E-9,457.800303
100.996820,-0.481000,-0.479189,-0.093560,-0.000205,-1.600000E-10,456.226176
105.212541,-0.480000,-0.479189,-0.093699,-0.000204,6.900000E-10,458.914691
109.443899,-0.479000,-0.477236,-0.094009,-0.000204,-1.070000E-9,460.543270
113.658864,-0.478000,-0.477175,-0.093961,-0.000203,-6.200000E-10,462.076548
117.861992,-0.477000,-0.475222,-0.094008,-0.000204,-1.100000E-10,461.937718
122.069506,-0.476000,-0.475222,-0.094154,-0.000202,-1.130000E-9,465.284336
126.290111,-0.475000,-0.473207,-0.094096,-0.000202,-1.460000E-9,464.922465
130.520476,-0.474000,-0.473207,-0.093979,-0.000201,-8.200000E-10,466.513703
134.729162,-0.473000,-0.471193,-0.093983,-0.000201,-9.000000E-11,466.430134
138.947569,-0.472000,-0.471193,-0.094136,-0.000200,-3.600000E-10,469.749559
143.144022,-0.471000,-0.469240,-0.094237,-0.000200,-7.500000E-10,470.143483
147.335258,-0.470000,-0.469240,-0.094256,-0.000200,1.110000E-9,471.878393
151.537265,-0.469000,-0.467226,-0.094652,-0.000200,-9.100000E-10,474.305394
155.726678,-0.468000,-0.467226,-0.094632,-0.000199,-2.020000E-9,476.361985
159.941844,-0.467000,-0.465212,-0.094402,-0.000199,3.700000E-10,474.185641
164.166032,-0.466000,-0.465273,-0.094644,-0.000198,-2.780000E-9,478.040591
168.357318,-0.465000,-0.463198,-0.094263,-0.000198,-2.810000E-9,476.373314
172.573555,-0.464000,-0.463198,-0.093876,-0.000197,2.200000E-10,476.965954
176.764873,-0.463000,-0.461245,-0.094095,-0.000197,-5.200000E-10,478.008324
180.980652,-0.462000,-0.461245,-0.094156,-0.000196,-1.900000E-10,480.599794
185.195410,-0.461000,-0.459230,-0.094288,-0.000196,-5.800000E-10,482.043684
189.427702,-0.460000,-0.459230,-0.094334,-0.000195,-6.100000E-10,484.389963
193.627560,-0.459000,-0.457277,-0.094379,-0.000195,-1.000000E-11,484.311086
197.847002,-0.458000,-0.457277,-0.094547,-0.000194,1.400000E-10,487.853447
202.062965,-0.457000,-0.455263,-0.094748,-0.000194,-4.300000E-10,488.679277
206.271712,-0.456000,-0.455263,-0.094830,-0.000193,-2.290000E-9,491.586763
210.475662,-0.455000,-0.453249,-0.094535,-0.000193,-2.910000E-9,490.201484
214.657626,-0.454000,-0.453249,-0.094122,-0.000192,-1.170000E-9,490.162087
218.853554,-0.453000,-0.451235,-0.094059,-0.000192,-4.300000E-10,490.506416
223.052522,-0.452000,-0.451235,-0.094147,-0.000191,-9.000000E-10,492.625468
227.257770,-0.451000,-0.449221,-0.094138,-0.000191,-1.400000E-10,493.050107
231.465589,-0.450000,-0.449221,-0.094280,-0.000190,-2.620000E-9,495.365625
235.665482,-0.449000,-0.447268,-0.093928,-0.000190,-1.860000E-9,494.475483
239.877313,-0.448000,-0.447268,-0.093727,-0.000189,4.300000E-10,495.025530
244.079195,-0.447000,-0.445314,-0.093984,-0.000189,-2.040000E-9,496.829006
248.298897,-0.446000,-0.445314,-0.093750,-0.000188,-1.370000E-9,497.614531
252.513218,-0.445000,-0.443300,-0.093648,-0.000188,-1.810000E-9,497.156293
256.711527,-0.444000,-0.443300,-0.093458,-0.000187,1.300000E-10,498.989789
260.914293,-0.443000,-0.441286,-0.093656,-0.000188,-1.480000E-9,499.184082
265.111607,-0.442000,-0.441286,-0.093530,-0.000186,-2.220000E-9,501.904257
269.327006,-0.441000,-0.439272,-0.093252,-0.000186,-1.740000E-9,500.505896
273.541277,-0.440000,-0.439272,-0.093072,-0.000186,-7.500000E-10,501.627305
277.746942,-0.439000,-0.437258,-0.093090,-0.000185,-7.100000E-10,501.840444
281.951853,-0.438000,-0.437258,-0.093121,-0.000184,-2.060000E-9,505.977230
286.166237,-0.437000,-0.435305,-0.092876,-0.000184,-3.800000E-10,505.780928
290.375469,-0.436000,-0.435305,-0.092967,-0.000183,-2.430000E-9,508.266483
294.586293,-0.435000,-0.433290,-0.092655,-0.000183,-1.940000E-9,506.541126
298.801554,-0.434000,-0.433290,-0.092436,-0.000182,1.290000E-9,508.626099
302.989303,-0.433000,-0.431337,-0.092868,-0.000182,6.000000E-11,510.697983
307.191458,-0.432000,-0.431337,-0.093051,-0.000181,-2.220000E-9,514.421928
311.403627,-0.431000,-0.429323,-0.092772,-0.000181,-4.000000E-10,512.977315
315.628245,-0.430000,-0.429323,-0.092864,-0.000180,-2.760000E-9,515.700097
319.836037,-0.429000,-0.427309,-0.092485,-0.000180,-9.000000E-11,513.569298
324.045132,-0.428000,-0.427309,-0.092633,-0.000179,-3.900000E-10,517.329699
328.264811,-0.427000,-0.425295,-0.092721,-0.000179,-6.500000E-10,517.651575
332.467862,-0.426000,-0.425295,-0.092760,-0.000178,-6.800000E-10,519.956266
336.679001,-0.425000,-0.423342,-0.092796,-0.000178,-3.170000E-9,520.657825
340.894390,-0.424000,-0.423342,-0.092330,-0.000177,-6.000000E-11,520.925762
345.118850,-0.423000,-0.421328,-0.092488,-0.000177,-2.300000E-9,521.302224
349.334814,-0.422000,-0.421328,-0.092194,-0.000177,-1.080000E-9,522.169968
353.529745,-0.421000,-0.419313,-0.092147,-0.000177,-1.870000E-9,521.924058
357.731916,-0.420000,-0.419313,-0.091950,-0.000175,-3.000000E-11,524.051236
361.947400,-0.419000,-0.417299,-0.092118,-0.000175,-1.840000E-9,525.349766
366.153339,-0.418000,-0.417299,-0.091920,-0.000174,-3.300000E-10,526.922083
370.364398,-0.417000,-0.415346,-0.092027,-0.000174,-2.700000E-10,527.802678
374.565571,-0.416000,-0.415346,-0.092143,-0.000173,-2.060000E-9,531.600427
378.780670,-0.415000,-0.413332,-0.091898,-0.000173,-1.760000E-9,530.641622
382.998886,-0.414000,-0.413332,-0.091719,-0.000172,-2.090000E-9,532.544267
387.211190,-0.413000,-0.411379,-0.091468,-0.000172,-4.800000E-10,530.886452
391.431989,-0.412000,-0.411379,-0.091538,-0.000171,1.400000E-10,534.520178
395.635151,-0.411000,-0.409365,-0.091734,-0.000171,-1.670000E-9,535.663735
399.851047,-0.410000,-0.409365,-0.091567,-0.000170,-3.980000E-9,537.410815
404.047465,-0.409000,-0.407351,-0.090935,-0.000170,9.700000E-10,533.509126
408.257283,-0.408000,-0.407351,-0.091292,-0.000169,-2.270000E-9,538.823396
412.462615,-0.407000,-0.405336,-0.091007,-0.000169,-8.900000E-10,537.275818
416.664681,-0.406000,-0.405336,-0.090994,-0.000169,-1.670000E-9,539.781044
420.872928,-0.405000,-0.403322,-0.090831,-0.000169,-1.860000E-9,539.041421
425.073067,-0.404000,-0.403322,-0.090623,-0.000168,-3.200000E-10,540.502120
429.282685,-0.403000,-0.401369,-0.090721,-0.000167,-1.360000E-9,541.868621
433.498260,-0.402000,-0.401369,-0.090617,-0.000167,-3.900000E-10,543.820544
437.698943,-0.401000,-0.399355,-0.090710,-0.000166,-5.700000E-10,544.940304
441.915354,-0.400000,-0.399355,-0.090769,-0.000166,-1.830000E-9,547.451904
446.119580,-0.399000,-0.397402,-0.090576,-0.000166,-1.970000E-9,547.094111
450.330667,-0.398000,-0.397341,-0.090347,-0.000165,-1.360000E-9,548.239781
454.535125,-0.397000,-0.395388,-0.090239,-0.000165,-2.370000E-9,548.327413
458.753809,-0.396000,-0.395388,-0.089931,-0.000164,-0.000000,549.639492
462.958921,-0.395000,-0.393373,-0.090094,-0.000164,-9.900000E-10,550.768700
467.169163,-0.394000,-0.393373,-0.090066,-0.000163,-1.880000E-9,552.870254
471.378861,-0.393000,-0.391359,-0.089858,-0.000163,-4.100000E-10,551.538494
475.573574,-0.392000,-0.391359,-0.089946,-0.000162,1.000000E-10,555.644920
479.780690,-0.391000,-0.389406,-0.090129,-0.000162,-1.870000E-9,557.051272
483.992784,-0.390000,-0.389406,-0.089925,-0.000161,-2.760000E-9,559.063082
488.209226,-0.389000,-0.387392,-0.089545,-0.000161,-1.890000E-9,557.349039
492.401676,-0.388000,-0.387392,-0.089329,-0.000160,-4.300000E-10,559.436621
496.611597,-0.387000,-0.385378,-0.089417,-0.000160,-7.000000E-11,560.476795
500.827922,-0.386000,-0.385378,-0.089575,-0.000159,4.500000E-10,564.960633
505.035758,-0.385000,-0.383364,-0.089837,-0.000158,2.400000E-10,567.120430
509.243577,-0.384000,-0.383364,-0.090046,-0.000157,-1.280000E-9,572.501618
513.452717,-0.383000,-0.381411,-0.089961,-0.000157,-1.380000E-9,572.291971
517.666662,-0.382000,-0.381411,-0.089853,-0.000156,-1.060000E-9,574.753117
521.861978,-0.381000,-0.379396,-0.089804,-0.000156,-1.410000E-9,574.314145
526.085095,-0.380000,-0.379396,-0.089685,-0.000155,-2.840000E-9,577.323563
530.291545,-0.379000,-0.377443,-0.089283,-0.000155,-1.000000E-10,575.535787
534.497821,-0.378000,-0.377443,-0.089434,-0.000154,-2.230000E-9,579.944676
538.706215,-0.377000,-0.375429,-0.089154,-0.000154,-2.710000E-9,579.007293
542.914542,-0.376000,-0.375429,-0.088773,-0.000153,-1.800000E-10,580.699388
547.122491,-0.375000,-0.373415,-0.088903,-0.000153,-1.160000E-9,581.242807
551.318604,-0.374000,-0.373415,-0.088838,-0.000152,-1.600000E-9,584.878981
555.535714,-0.373000,-0.371401,-0.088692,-0.000152,-9.800000E-10,584.680088
559.730236,-0.372000,-0.371401,-0.088658,-0.000151,-4.400000E-10,588.421525
563.939653,-0.371000,-0.369448,-0.088742,-0.000151,-1.730000E-9,588.616672
568.159206,-0.370000,-0.369448,-0.088560,-0.000150,-2.500000E-10,591.103728
572.372757,-0.369000,-0.367434,-0.088673,-0.000150,-1.420000E-9,592.739661
576.577481,-0.368000,-0.367434,-0.088559,-0.000149,-5.400000E-10,595.413227
580.791751,-0.367000,-0.365419,-0.088614,-0.000149,-2.000000E-9,596.162738
585.006720,-0.366000,-0.365419,-0.088380,-0.000148,-2.020000E-9,597.542021
589.225988,-0.365000,-0.363466,-0.088142,-0.000148,-1.450000E-9,596.143048
593.422666,-0.364000,-0.363466,-0.088012,-0.000147,-1.560000E-9,599.550382
597.627542,-0.363000,-0.361452,-0.087869,-0.000147,4.600000E-10,599.017162
601.832447,-0.362000,-0.361452,-0.088132,-0.000146,-1.900000E-10,604.171128
606.044906,-0.361000,-0.359438,-0.088256,-0.000146,-2.240000E-9,605.521421
610.257804,-0.360000,-0.359438,-0.087984,-0.000145,-5.400000E-10,607.678074
614.477440,-0.359000,-0.357424,-0.088038,-0.000145,-6.800000E-10,608.429846
618.675434,-0.358000,-0.357424,-0.088065,-0.000144,-4.800000E-10,613.316784
622.874076,-0.357000,-0.355471,-0.088139,-0.000143,-5.800000E-10,614.391457
627.055629,-0.356000,-0.355471,-0.088191,-0.000142,-9.200000E-10,619.239099
631.273607,-0.355000,-0.353456,-0.088176,-0.000142,-2.380000E-9,619.257338
635.485770,-0.354000,-0.353456,-0.087872,-0.000142,-3.380000E-9,620.886753
639.710365,-0.353000,-0.351442,-0.087368,-0.000141,-9.400000E-10,619.075197
643.912253,-0.352000,-0.351442,-0.087342,-0.000140,-1.000000E-9,622.312110
648.136581,-0.351000,-0.349428,-0.087308,-0.000140,-7.700000E-10,622.706951
652.359788,-0.350000,-0.349428,-0.087326,-0.000139,-1.650000E-9,626.475903
656.564126,-0.349000,-0.347475,-0.087166,-0.000139,-1.780000E-9,626.272041
660.776500,-0.348000,-0.347475,-0.086978,-0.000138,-1.050000E-9,628.360071
665.007342,-0.347000,-0.345461,-0.086940,-0.000138,-1.960000E-9,628.483649
669.219288,-0.346000,-0.345461,-0.086717,-0.000137,-1.760000E-9,632.051216
673.430387,-0.345000,-0.343508,-0.086529,-0.000137,-2.990000E-9,631.372556
677.636611,-0.344000,-0.343508,-0.086103,-0.000136,-1.850000E-9,633.531441
681.852229,-0.343000,-0.341494,-0.085906,-0.000136,-1.480000E-9,632.188447
686.054873,-0.342000,-0.341494,-0.085773,-0.000135,-2.660000E-9,635.239358
690.252707,-0.341000,-0.339479,-0.085413,-0.000135,-6.700000E-10,632.900180
694.461789,-0.340000,-0.339479,-0.085446,-0.000134,-1.100000E-9,637.408586
698.643861,-0.339000,-0.337465,-0.085398,-0.000134,-1.900000E-9,637.727581
702.834187,-0.338000,-0.337465,-0.085188,-0.000133,-4.200000E-10,641.194238
707.045504,-0.337000,-0.335512,-0.085272,-0.000133,-2.460000E-9,642.196860
711.256835,-0.336000,-0.335512,-0.084945,-0.000132,1.130000E-9,644.486742
715.470902,-0.335000,-0.333498,-0.085335,-0.000132,2.600000E-10,647.272354
719.684355,-0.334000,-0.333498,-0.085555,-0.000131,-1.640000E-9,655.441255
723.874534,-0.333000,-0.331484,-0.085386,-0.000131,-4.260000E-9,654.159396
728.088019,-0.332000,-0.331484,-0.084698,-0.000130,1.150000E-9,652.598534
732.300309,-0.331000,-0.329531,-0.085101,-0.000130,-2.650000E-9,655.943046
736.510674,-0.330000,-0.329470,-0.084733,-0.000129,7.000000E-11,658.717991
740.718770,-0.329000,-0.327517,-0.084906,-0.000129,-1.900000E-10,659.871834
744.929799,-0.328000,-0.327517,-0.085040,-0.000128,-1.130000E-9,665.636867
749.136190,-0.327000,-0.325502,-0.084980,-0.000128,-1.050000E-9,665.750521
753.352262,-0.326000,-0.325502,-0.084937,-0.000127,-1.090000E-9,670.542607
757.569526,-0.325000,-0.323488,-0.084883,-0.000127,-2.270000E-9,670.732287
761.766812,-0.324000,-0.323549,-0.084602,-0.000126,-1.730000E-9,672.842803
765.957841,-0.323000,-0.321535,-0.084428,-0.000125,-2.360000E-9,673.346900
770.159883,-0.322000,-0.321535,-0.084118,-0.000124,-2.560000E-9,676.080714
774.359913,-0.321000,-0.319521,-0.083767,-0.000124,-1.360000E-9,674.520365
778.557117,-0.320000,-0.319460,-0.083665,-0.000123,-1.440000E-9,677.944808
782.746034,-0.319000,-0.317568,-0.083549,-0.000123,-1.700000E-10,677.336811
786.957989,-0.318000,-0.317568,-0.083682,-0.000122,-1.610000E-9,684.690085
791.179978,-0.317000,-0.315554,-0.083528,-0.000122,-3.060000E-9,683.708904
795.378017,-0.316000,-0.315554,-0.083079,-0.000121,-1.290000E-9,685.348629
799.576869,-0.315000,-0.313540,-0.082994,-0.000121,1.400000E-10,685.499791
803.788058,-0.314000,-0.313540,-0.083190,-0.000120,-1.030000E-9,692.543645
807.995995,-0.313000,-0.311525,-0.083153,-0.000120,-1.400000E-9,692.315858
812.209617,-0.312000,-0.311525,-0.083037,-0.000119,-3.600000E-10,697.286132
816.404976,-0.311000,-0.309572,-0.083133,-0.000119,-2.180000E-9,698.730599
820.609566,-0.310000,-0.309572,-0.082861,-0.000118,-1.220000E-9,701.669123
824.820673,-0.309000,-0.307558,-0.082785,-0.000118,-7.200000E-10,702.464356
829.018866,-0.308000,-0.307558,-0.082809,-0.000117,-2.130000E-9,707.726537
833.232225,-0.307000,-0.305544,-0.082547,-0.000117,-7.500000E-10,707.098519
837.444750,-0.306000,-0.305544,-0.082567,-0.000116,-1.870000E-9,713.369579
841.652650,-0.305000,-0.303530,-0.082364,-0.000116,-3.140000E-9,712.434404
845.877040,-0.304000,-0.303530,-0.081898,-0.000115,-2.970000E-9,713.760672
850.079367,-0.303000,-0.301577,-0.081473,-0.000115,-1.310000E-9,709.988109
854.289425,-0.302000,-0.301577,-0.081372,-0.000114,-2.290000E-9,715.425621
858.503209,-0.301000,-0.299562,-0.081085,-0.000114,-1.490000E-9,712.868705
862.721663,-0.300000,-0.299562,-0.080947,-0.000113,-1.430000E-9,717.945329
866.930568,-0.299000,-0.297609,-0.080821,-0.000113,-2.320000E-9,717.639277
871.138685,-0.298000,-0.297609,-0.080513,-0.000112,1.500000E-10,721.024131
875.365354,-0.297000,-0.295595,-0.080717,-0.000112,4.000000E-10,723.411332
879.579130,-0.296000,-0.295595,-0.080959,-0.000111,-1.440000E-9,731.405848
883.799326,-0.295000,-0.293581,-0.080840,-0.000111,-2.260000E-9,730.825676
887.989523,-0.294000,-0.293581,-0.080554,-0.000110,-1.070000E-9,735.554104
892.219519,-0.293000,-0.291567,-0.080508,-0.000109,-8.300000E-10,736.487185
896.421071,-0.292000,-0.291567,-0.080508,-0.000108,-2.500000E-10,743.314135
900.651123,-0.291000,-0.289614,-0.080621,-0.000108,-9.900000E-10,745.406879
904.860134,-0.290000,-0.289614,-0.080593,-0.000107,-1.000000E-9,751.387026
909.070213,-0.289000,-0.287600,-0.080562,-0.000107,-3.300000E-10,750.214795
913.284923,-0.288000,-0.287600,-0.080666,-0.000106,-1.130000E-9,758.143235
917.491458,-0.287000,-0.285646,-0.080604,-0.000106,-7.200000E-10,757.976447
921.701174,-0.286000,-0.285646,-0.080628,-0.000106,-2.070000E-9,764.202751
925.913665,-0.285000,-0.283632,-0.080382,-0.000105,-1.620000E-9,763.369880
930.125813,-0.284000,-0.283632,-0.080230,-0.000104,-1.590000E-9,769.160094
934.338014,-0.283000,-0.281618,-0.080073,-0.000104,-1.480000E-9,769.014563
938.558472,-0.282000,-0.281618,-0.079940,-0.000103,-1.710000E-9,774.184892
942.755167,-0.281000,-0.279604,-0.079768,-0.000103,-1.620000E-9,773.861565
946.966733,-0.280000,-0.279604,-0.079610,-0.000102,-6.100000E-10,779.641012
951.174957,-0.279000,-0.277651,-0.079651,-0.000102,-2.040000E-9,780.046481
955.370707,-0.278000,-0.277651,-0.079405,-0.000101,-1.460000E-9,785.205982
959.591861,-0.277000,-0.275637,-0.079288,-0.000101,-1.840000E-9,784.486657
963.807864,-0.276000,-0.275637,-0.079081,-0.000100,-1.780000E-9,790.169287
968.007981,-0.275000,-0.273623,-0.078889,-0.000100,-2.590000E-9,788.689424
972.210725,-0.274000,-0.273623,-0.078536,-9.905093E-5,-3.800000E-10,792.889860
976.417321,-0.273000,-0.271608,-0.078624,-9.910333E-5,4.600000E-10,793.353840
980.636702,-0.272000,-0.271608,-0.078878,-9.806453E-5,-4.700000E-10,804.350168
984.832449,-0.271000,-0.269594,-0.078946,-9.787127E-5,-5.200000E-10,806.631880
989.031775,-0.270000,-0.269594,-0.079011,-9.700507E-5,-5.500000E-10,814.499016
993.233529,-0.269000,-0.267641,-0.079067,-9.683840E-5,-2.590000E-9,816.487257
997.451553,-0.268000,-0.267641,-0.078715,-9.586367E-5,-3.880000E-9,821.109858
1001.648612,-0.267000,-0.265627,-0.078111,-9.580147E-5,-3.800000E-9,815.341883
1005.863703,-0.266000,-0.265627,-0.077512,-9.489387E-5,9.100000E-10,816.826497
1010.080669,-0.265000,-0.263674,-0.077857,-9.490067E-5,-1.570000E-9,820.406715
1014.285584,-0.264000,-0.263674,-0.077709,-9.401653E-5,-2.900000E-9,826.546394
1018.496409,-0.263000,-0.261660,-0.077293,-9.393773E-5,-1.250000E-9,822.808867
1022.708343,-0.262000,-0.261660,-0.077211,-9.315387E-5,-1.240000E-9,828.856883
1026.914222,-0.261000,-0.259645,-0.077134,-9.302787E-5,-1.030000E-9,829.146340
1031.120174,-0.260000,-0.259645,-0.077094,-9.197387E-5,-7.500000E-10,838.217617
1035.329144,-0.259000,-0.257631,-0.077110,-9.203027E-5,-1.530000E-9,837.881867
1039.532677,-0.258000,-0.257631,-0.076969,-9.106753E-5,6.900000E-10,845.187974
1043.742569,-0.257000,-0.255678,-0.077267,-9.088987E-5,-3.850000E-9,850.117412
1047.943614,-0.256000,-0.255678,-0.076665,-9.007027E-5,-2.170000E-9,851.169691
1052.161523,-0.255000,-0.253664,-0.076402,-9.011620E-5,-8.700000E-10,847.821210
1056.369634,-0.254000,-0.253664,-0.076399,-8.915813E-5,-8.100000E-10,856.896630
1060.579575,-0.253000,-0.251711,-0.076400,-8.904687E-5,-1.060000E-9,857.974794
1064.785447,-0.252000,-0.251711,-0.076361,-8.814733E-5,-2.430000E-9,866.293760
1068.995753,-0.251000,-0.249696,-0.076043,-8.799613E-5,-1.150000E-9,864.166553
1073.201220,-0.250000,-0.249696,-0.075983,-8.708380E-5,-1.150000E-9,872.530836
1077.408778,-0.249000,-0.247682,-0.075920,-8.694473E-5,-2.210000E-9,873.203869
1081.614823,-0.248000,-0.247682,-0.075650,-8.606273E-5,-6.900000E-10,879.004325
1085.820588,-0.247000,-0.245667,-0.075683,-8.586767E-5,-2.070000E-9,881.393275
1090.033765,-0.246000,-0.245667,-0.075432,-8.507340E-5,-1.610000E-9,886.669659
1094.227342,-0.245000,-0.243714,-0.075273,-8.487700E-5,-1.340000E-9,886.845215
1098.426594,-0.244000,-0.243714,-0.075177,-8.393287E-5,5.200000E-10,895.680639
1102.626913,-0.243000,-0.241700,-0.075442,-8.387487E-5,-2.390000E-9,899.459237
1106.824345,-0.242000,-0.241700,-0.075129,-8.308867E-5,-1.450000E-9,904.197208
1111.048102,-0.241000,-0.239747,-0.075004,-8.286547E-5,-1.420000E-9,905.127830
1115.240590,-0.240000,-0.239747,-0.074892,-8.197900E-5,-1.700000E-9,913.552932
1119.453642,-0.239000,-0.237733,-0.074717,-8.195587E-5,-1.670000E-9,911.677511
1123.666064,-0.238000,-0.237733,-0.074550,-8.105147E-5,-8.800000E-10,919.785798
1127.880442,-0.237000,-0.235719,-0.074548,-8.100627E-5,-1.350000E-9,920.270141
1132.071485,-0.236000,-0.235719,-0.074453,-8.004120E-5,-1.690000E-9,930.180430
1136.276444,-0.235000,-0.233705,-0.074281,-7.995660E-5,-9.100000E-10,929.015555
1140.476451,-0.234000,-0.233705,-0.074274,-7.900327E-5,-1.970000E-9,940.137253
1144.675959,-0.233000,-0.231751,-0.074051,-7.875167E-5,-1.440000E-9,940.309598
1148.871779,-0.232000,-0.231751,-0.073937,-7.786720E-5,-1.700000E-10,949.531273
1153.079753,-0.231000,-0.229737,-0.074074,-7.771293E-5,-2.320000E-9,953.176882
1157.292081,-0.230000,-0.229737,-0.073783,-7.688607E-5,-1.170000E-9,959.636294
1161.502849,-0.229000,-0.227723,-0.073711,-7.685553E-5,-2.100000E-9,959.088054
1165.725729,-0.228000,-0.227723,-0.073456,-7.599280E-5,-7.000000E-11,966.621378
1169.940746,-0.227000,-0.225770,-0.073610,-7.590153E-5,-6.800000E-10,969.804717
1174.148992,-0.226000,-0.225770,-0.073638,-7.493947E-5,-1.140000E-9,982.627720
1178.359995,-0.225000,-0.223695,-0.073573,-7.488553E-5,-1.720000E-9,982.478287
1182.562632,-0.224000,-0.223756,-0.073392,-7.400627E-5,-3.400000E-10,991.697840
1186.767191,-0.223000,-0.221742,-0.073493,-7.396373E-5,-1.760000E-9,993.631139
1190.969147,-0.222000,-0.221742,-0.073304,-7.305053E-5,-6.600000E-10,1003.463489
1195.177945,-0.221000,-0.219728,-0.073341,-7.305447E-5,-2.780000E-9,1003.927859
1199.379237,-0.220000,-0.219728,-0.072950,-7.207567E-5,-1.860000E-9,1012.124024
1203.595824,-0.219000,-0.217774,-0.072752,-7.204393E-5,-2.620000E-9,1009.830419
1207.810723,-0.218000,-0.217774,-0.072395,-7.116033E-5,-1.100000E-10,1017.344478
1212.022935,-0.217000,-0.215760,-0.072544,-7.097160E-5,-1.030000E-9,1022.160920
1216.232749,-0.216000,-0.215760,-0.072510,-7.013700E-5,-1.090000E-9,1033.839258
1220.436527,-0.215000,-0.213746,-0.072464,-7.010920E-5,1.600000E-10,1033.593826
1224.637754,-0.214000,-0.213746,-0.072663,-6.933913E-5,-1.040000E-9,1047.937796
1228.871329,-0.213000,-0.211732,-0.072621,-6.923520E-5,-2.280000E-9,1048.908937
1233.075910,-0.212000,-0.211732,-0.072337,-6.833913E-5,-1.420000E-9,1058.498570
1237.278744,-0.211000,-0.209779,-0.072229,-6.827460E-5,-1.090000E-9,1057.917056
1241.490419,-0.210000,-0.209779,-0.072181,-6.749573E-5,-2.880000E-9,1069.416648
1245.700179,-0.209000,-0.207765,-0.071776,-6.730227E-5,-1.860000E-9,1066.469193
1249.901511,-0.208000,-0.207765,-0.071575,-6.645507E-5,-9.800000E-10,1077.041644
1254.084832,-0.207000,-0.205812,-0.071555,-6.641253E-5,-2.780000E-9,1077.427849
1258.288740,-0.206000,-0.205812,-0.071168,-6.551707E-5,2.200000E-10,1086.257542
1262.486734,-0.205000,-0.203797,-0.071379,-6.560340E-5,-2.880000E-9,1088.043434
1266.684665,-0.204000,-0.203797,-0.070973,-6.474180E-5,1.160000E-9,1096.240285
1270.882967,-0.203000,-0.201783,-0.071379,-6.463847E-5,-9.800000E-10,1104.277621
1275.091301,-0.202000,-0.201783,-0.071356,-6.375720E-5,-5.000000E-11,1119.186768
1279.309453,-0.201000,-0.199769,-0.071517,-6.368060E-5,-3.750000E-9,1123.058558
1283.500694,-0.200000,-0.199769,-0.070936,-6.280147E-5,-1.600000E-9,1129.520909
1287.695325,-0.199000,-0.197816,-0.070789,-6.278887E-5,-3.600000E-10,1127.407343
1291.899366,-0.198000,-0.197816,-0.070881,-6.190240E-5,-2.690000E-9,1145.037503
1296.108994,-0.197000,-0.195802,-0.070516,-6.184947E-5,-1.800000E-10,1140.122369
1300.315071,-0.196000,-0.195802,-0.070654,-6.107160E-5,-1.000000E-10,1156.900530
1304.523022,-0.195000,-0.193788,-0.070807,-6.098727E-5,-7.000000E-10,1161.008122
1308.723090,-0.194000,-0.193788,-0.070832,-6.011060E-5,-1.750000E-9,1178.359844
1312.926888,-0.193000,-0.191773,-0.070648,-6.003633E-5,-1.920000E-9,1176.752333
1317.124084,-0.192000,-0.191773,-0.070434,-5.917413E-5,-5.900000E-10,1190.291090
1321.349254,-0.191000,-0.189820,-0.070486,-5.916027E-5,6.000000E-10,1191.447626
1325.564248,-0.190000,-0.189820,-0.070776,-5.833207E-5,-1.330000E-9,1213.322445
1329.769895,-0.189000,-0.187806,-0.070682,-5.825280E-5,-1.110000E-9,1213.364720
1333.977077,-0.188000,-0.187806,-0.070629,-5.741220E-5,-1.640000E-9,1230.208143
1338.190130,-0.187000,-0.185853,-0.070468,-5.734373E-5,-2.300000E-10,1228.863374
1342.402074,-0.186000,-0.185853,-0.070590,-5.645993E-5,-1.710000E-9,1250.268151
1346.613752,-0.185000,-0.183839,-0.070422,-5.634547E-5,-1.060000E-9,1249.825370
1350.810245,-0.184000,-0.183839,-0.070377,-5.550820E-5,-1.540000E-9,1267.870885
1355.026348,-0.183000,-0.181825,-0.070245,-5.540420E-5,6.400000E-10,1267.856867
1359.236654,-0.182000,-0.181825,-0.070548,-5.465167E-5,2.000000E-10,1290.865813
1363.452900,-0.181000,-0.179811,-0.070761,-5.451200E-5,-1.030000E-9,1298.076420
1367.667733,-0.180000,-0.179811,-0.070723,-5.367453E-5,-1.020000E-9,1317.629596
1371.866737,-0.179000,-0.177857,-0.070689,-5.366160E-5,-5.300000E-10,1317.311817
1376.068347,-0.178000,-0.177857,-0.070756,-5.280460E-5,-1.040000E-9,1339.953578
1380.278019,-0.177000,-0.175843,-0.070721,-5.279893E-5,-1.120000E-9,1339.444321
1384.491613,-0.176000,-0.175843,-0.070666,-5.198847E-5,-3.330000E-9,1359.262448
1388.698595,-0.175000,-0.173829,-0.070169,-5.187047E-5,-7.000000E-10,1352.779995
1392.903226,-0.174000,-0.173829,-0.070201,-5.105893E-5,-6.300000E-10,1374.910217
1397.091067,-0.173000,-0.171876,-0.070246,-5.099240E-5,-5.500000E-10,1377.587402
1401.310681,-0.172000,-0.171876,-0.070306,-5.022000E-5,-3.140000E-9,1399.956380
1405.515707,-0.171000,-0.169862,-0.069846,-5.013173E-5,-1.100000E-9,1393.242947
1409.736990,-0.170000,-0.169862,-0.069795,-4.933473E-5,-1.210000E-9,1414.714860
1413.952246,-0.169000,-0.167848,-0.069727,-4.924053E-5,-1.300000E-10,1416.043161
1418.132967,-0.168000,-0.167848,-0.069872,-4.850847E-5,-2.000000E-9,1440.414932
1422.327230,-0.167000,-0.165833,-0.069637,-4.844540E-5,-6.900000E-10,1437.437897
1426.531122,-0.166000,-0.165833,-0.069672,-4.760093E-5,-1.920000E-9,1463.664468
1430.746483,-0.165000,-0.163880,-0.069458,-4.754020E-5,-1.500000E-10,1461.030767
1434.953269,-0.164000,-0.163880,-0.069600,-4.673100E-5,-1.910000E-9,1489.378411
1439.159746,-0.163000,-0.161866,-0.069390,-4.668527E-5,-6.600000E-10,1486.342840
1443.368784,-0.162000,-0.161866,-0.069436,-4.592847E-5,4.000000E-11,1511.822750
1447.584662,-0.161000,-0.159852,-0.069617,-4.591427E-5,9.000000E-11,1516.228159
1451.775830,-0.160000,-0.159852,-0.069806,-4.505753E-5,-1.160000E-9,1549.273319
1455.973218,-0.159000,-0.157899,-0.069738,-4.502287E-5,-2.920000E-9,1548.951052
1460.186259,-0.158000,-0.157899,-0.069319,-4.418460E-5,-9.000000E-10,1568.852868
1464.396115,-0.157000,-0.155885,-0.069308,-4.415553E-5,-2.010000E-9,1569.628459
1468.597517,-0.156000,-0.155885,-0.069071,-4.330987E-5,-6.200000E-10,1594.818459
1472.803397,-0.155000,-0.153871,-0.069108,-4.326753E-5,-1.500000E-9,1597.235356
1477.015414,-0.154000,-0.153871,-0.068983,-4.255660E-5,-6.700000E-10,1620.963039
1481.211411,-0.153000,-0.151917,-0.069018,-4.256740E-5,-1.670000E-9,1621.378619
1485.412574,-0.152000,-0.151917,-0.068852,-4.172693E-5,-8.300000E-10,1650.067778
1489.624443,-0.151000,-0.149903,-0.068850,-4.166033E-5,5.700000E-10,1652.652531
1493.832694,-0.150000,-0.149903,-0.069132,-4.086100E-5,-1.780000E-9,1691.889898
1498.045549,-0.149000,-0.147889,-0.068949,-4.082893E-5,-1.280000E-9,1688.717023
1502.240360,-0.148000,-0.147889,-0.068869,-4.010700E-5,-7.600000E-10,1717.128754
1506.432446,-0.147000,-0.145875,-0.068886,-4.012933E-5,-1.510000E-9,1716.598842
1510.645444,-0.146000,-0.145936,-0.068757,-3.932720E-5,-1.370000E-9,1748.336808
1514.853528,-0.145000,-0.143922,-0.068655,-3.935373E-5,-2.350000E-9,1744.563924
1519.061090,-0.144000,-0.143922,-0.068358,-3.855293E-5,-8.300000E-10,1773.107515
1523.272649,-0.143000,-0.141908,-0.068354,-3.847180E-5,-1.720000E-9,1776.726370
1527.491633,-0.142000,-0.141908,-0.068180,-3.770940E-5,-2.000000E-11,1808.049959
1531.696897,-0.141000,-0.139955,-0.068341,-3.765547E-5,-2.200000E-10,1814.912229
1535.926894,-0.140000,-0.139955,-0.068467,-3.686553E-5,2.700000E-10,1857.208147
1540.141338,-0.139000,-0.137940,-0.068690,-3.683880E-5,-8.900000E-10,1864.617878
1544.350650,-0.138000,-0.137940,-0.068674,-3.610780E-5,6.100000E-10,1901.927845
1548.543293,-0.137000,-0.135926,-0.068961,-3.611200E-5,-1.100000E-9,1909.628454
1552.775224,-0.136000,-0.135926,-0.068902,-3.534660E-5,-1.920000E-9,1949.336725
1556.992678,-0.135000,-0.133912,-0.068690,-3.533567E-5,-1.210000E-9,1943.934612
1561.227388,-0.134000,-0.133912,-0.068618,-3.455640E-5,1.000000E-10,1985.684169
1565.436882,-0.133000,-0.131898,-0.068813,-3.450280E-5,-8.800000E-10,1994.425507
1569.654781,-0.132000,-0.131898,-0.068804,-3.374427E-5,-3.900000E-10,2038.975341
1573.860457,-0.131000,-0.129945,-0.068896,-3.375220E-5,-1.120000E-9,2041.235294
1578.083049,-0.130000,-0.129945,-0.068838,-3.294507E-5,-1.670000E-9,2089.490464
1582.302267,-0.129000,-0.127931,-0.068673,-3.289667E-5,-1.340000E-9,2087.542612
1586.528877,-0.128000,-0.127931,-0.068575,-3.215040E-5,-3.300000E-10,2132.958352
1590.722150,-0.127000,-0.125978,-0.068679,-3.210760E-5,-5.200000E-10,2139.012504
1594.924037,-0.126000,-0.125978,-0.068740,-3.133653E-5,-1.040000E-9,2193.610367
1599.147779,-0.125000,-0.123963,-0.068697,-3.141573E-5,-1.880000E-9,2186.699934
1603.356203,-0.124000,-0.123963,-0.068490,-3.060773E-5,-5.300000E-10,2237.666328
1607.557930,-0.123000,-0.121949,-0.068557,-3.061187E-5,-1.000000E-9,2239.558825
1611.781367,-0.122000,-0.121949,-0.068521,-2.987047E-5,-5.000000E-10,2293.932576
1615.993136,-0.121000,-0.119935,-0.068589,-2.989127E-5,9.900000E-10,2294.619765
1620.205850,-0.120000,-0.119935,-0.068960,-2.911333E-5,-9.200000E-10,2368.689368
1624.423066,-0.119000,-0.117981,-0.068948,-2.909653E-5,-1.270000E-9,2369.631699
1628.639719,-0.118000,-0.117981,-0.068869,-2.834440E-5,-1.170000E-9,2429.705872
1632.843455,-0.117000,-0.115967,-0.068796,-2.834547E-5,-1.070000E-9,2427.070849
1637.058166,-0.116000,-0.115967,-0.068750,-2.759693E-5,-1.940000E-9,2491.234274
1641.293706,-0.115000,-0.113953,-0.068534,-2.755953E-5,-1.630000E-9,2486.768272
1645.505219,-0.114000,-0.113953,-0.068382,-2.682347E-5,-1.250000E-9,2549.323890
1649.714494,-0.113000,-0.111939,-0.068304,-2.679520E-5,-1.800000E-9,2549.103071
1653.922831,-0.112000,-0.111939,-0.068110,-2.603920E-5,2.800000E-10,2615.678494
1658.127750,-0.111000,-0.109986,-0.068336,-2.605940E-5,-1.090000E-9,2622.334816
1662.342106,-0.110000,-0.109986,-0.068284,-2.528507E-5,-1.480000E-9,2700.572725
1666.538894,-0.109000,-0.107972,-0.068163,-2.528767E-5,-1.460000E-9,2695.511105
1670.748299,-0.108000,-0.107972,-0.068042,-2.454067E-5,-1.320000E-9,2772.621510
1674.951499,-0.107000,-0.106019,-0.067950,-2.452800E-5,-3.700000E-10,2770.296153
1679.178076,-0.106000,-0.106019,-0.068046,-2.376833E-5,9.300000E-10,2862.880553
1683.418521,-0.105000,-0.104004,-0.068397,-2.377093E-5,-1.700000E-9,2877.345443
1687.630658,-0.104000,-0.104004,-0.068221,-2.304433E-5,-1.680000E-9,2960.428435
1691.863257,-0.103000,-0.101990,-0.068053,-2.304647E-5,-4.900000E-10,2952.871431
1696.082350,-0.102000,-0.101990,-0.068129,-2.230393E-5,-1.140000E-9,3054.588169
1700.318460,-0.101000,-0.099976,-0.068066,-2.232140E-5,8.500000E-10,3049.373095
1704.530216,-0.100000,-0.099976,-0.068408,-2.157467E-5,-8.200000E-10,3170.743276
1708.761403,-0.099000,-0.098023,-0.068413,-2.153953E-5,-2.230000E-9,3176.174878
1712.991010,-0.098000,-0.098023,-0.068132,-2.084733E-5,-2.200000E-10,3268.131503
1717.217208,-0.097000,-0.096009,-0.068256,-2.081967E-5,-5.200000E-10,3278.440716
1721.430667,-0.096000,-0.096009,-0.068324,-2.007487E-5,-1.360000E-9,3403.459327
1725.653557,-0.095000,-0.093995,-0.068220,-2.009473E-5,-1.040000E-9,3394.906642
1729.880185,-0.094000,-0.093995,-0.068177,-1.935907E-5,-3.800000E-10,3521.716332
1734.102172,-0.093000,-0.092041,-0.068266,-1.934613E-5,-1.540000E-9,3528.664005
1738.333310,-0.092000,-0.091981,-0.068126,-1.863247E-5,2.000000E-11,3656.285649
1742.560429,-0.091000,-0.090027,-0.068302,-1.861980E-5,3.400000E-10,3668.239526
1746.772781,-0.090000,-0.090027,-0.068543,-1.787667E-5,-1.090000E-9,3834.194781
1751.001720,-0.089000,-0.088013,-0.068488,-1.789020E-5,-5.600000E-10,3828.237514
1755.230663,-0.088000,-0.088013,-0.068548,-1.719833E-5,-9.400000E-10,3985.722134
1759.462605,-0.087000,-0.085999,-0.068530,-1.719740E-5,-7.700000E-10,3984.877444
1763.680830,-0.086000,-0.085999,-0.068544,-1.649153E-5,-7.100000E-10,4156.312770
1767.903557,-0.085000,-0.084046,-0.068566,-1.649873E-5,-1.580000E-9,4155.837013
1772.132516,-0.084000,-0.084046,-0.068424,-1.578420E-5,-2.000000E-10,4334.937282
1776.382490,-0.083000,-0.082032,-0.068558,-1.579767E-5,-2.240000E-9,4339.750102
1780.614477,-0.082000,-0.082032,-0.068290,-1.513293E-5,2.000000E-11,4512.672057
1784.830717,-0.081000,-0.080018,-0.068468,-1.514340E-5,-3.100000E-10,4521.335000
1789.060657,-0.080000,-0.080018,-0.068568,-1.444693E-5,-1.880000E-9,4746.217602
1793.278129,-0.079000,-0.078003,-0.068364,-1.444120E-5,-7.200000E-10,4733.932536
1797.485443,-0.078000,-0.078003,-0.068391,-1.378080E-5,-1.360000E-9,4962.739349
1801.721680,-0.077000,-0.076050,-0.068293,-1.377967E-5,7.100000E-10,4956.093627
1805.938920,-0.076000,-0.076050,-0.068600,-1.311473E-5,-1.620000E-9,5230.757066
1810.173056,-0.075000,-0.074036,-0.068445,-1.311680E-5,-1.770000E-9,5218.101664
1814.398422,-0.074000,-0.074036,-0.068262,-1.246653E-5,-1.530000E-9,5475.641247
1818.602815,-0.073000,-0.072083,-0.068119,-1.246560E-5,-8.700000E-10,5464.582723
1822.822688,-0.072000,-0.072083,-0.068115,-1.179347E-5,-7.300000E-10,5775.667740
1827.039530,-0.071000,-0.070069,-0.068133,-1.180800E-5,-3.600000E-10,5770.039298
1831.261492,-0.070000,-0.070069,-0.068235,-1.117993E-5,-7.500000E-10,6103.380750
1835.499374,-0.069000,-0.068055,-0.068256,-1.119160E-5,-3.400000E-10,6098.819754
1839.721568,-0.068000,-0.068055,-0.068360,-1.055300E-5,-1.300000E-9,6477.809270
1843.944235,-0.067000,-0.066041,-0.068272,-1.056447E-5,-1.300000E-10,6462.415415
1848.174459,-0.066000,-0.066041,-0.068419,-9.924800E-6,-4.000000E-10,6893.785424
1852.388229,-0.065000,-0.064087,-0.068504,-9.920733E-6,0.000000,6905.119501
1856.612240,-0.064000,-0.064087,-0.068671,-9.299667E-6,-2.040000E-9,7384.247490
1860.838881,-0.063000,-0.062073,-0.068437,-9.302733E-6,-8.500000E-10,7356.700964
1865.040733,-0.062000,-0.062073,-0.068434,-8.695400E-6,-3.400000E-10,7870.194787
1869.268038,-0.061000,-0.060120,-0.068536,-8.691000E-6,-1.040000E-9,7885.863044
1873.483686,-0.060000,-0.060120,-0.068504,-8.080333E-6,1.700000E-10,8477.890906
1877.702717,-0.059000,-0.058106,-0.068714,-8.072800E-6,-1.450000E-9,8511.776109
1881.923116,-0.058000,-0.058106,-0.068590,-7.473267E-6,-9.800000E-10,9178.082906
1886.151216,-0.057000,-0.056092,-0.068561,-7.470000E-6,-1.810000E-9,9178.181729
1890.370853,-0.056000,-0.056092,-0.068373,-6.876467E-6,-1.730000E-9,9943.102353
1894.591497,-0.055000,-0.054077,-0.068193,-6.865467E-6,-7.600000E-10,9932.757924
1898.811469,-0.054000,-0.054077,-0.068204,-6.259733E-6,9.400000E-10,10895.742126
1903.016747,-0.053000,-0.052124,-0.068561,-6.260267E-6,-1.820000E-9,10951.845289
1907.251071,-0.052000,-0.052124,-0.068359,-5.675067E-6,-7.700000E-10,12045.514765
1911.464053,-0.051000,-0.050110,-0.068377,-5.675600E-6,-1.200000E-9,12047.499296
1915.703380,-0.050000,-0.050110,-0.068305,-5.088867E-6,4.000000E-10,13422.453297
1919.913588,-0.049000,-0.048096,-0.068560,-5.085000E-6,-7.500000E-10,13482.720099
1924.127282,-0.048000,-0.048096,-0.068579,-4.506933E-6,-9.800000E-10,15216.439867
1928.352859,-0.047000,-0.046143,-0.068552,-4.500400E-6,-1.180000E-9,15232.368010
1932.574872,-0.046000,-0.046143,-0.068480,-3.930867E-6,-5.500000E-10,17421.028220
1936.781183,-0.045000,-0.044129,-0.068541,-3.931067E-6,-1.140000E-9,17435.742171
1940.992729,-0.044000,-0.044129,-0.068479,-3.348267E-6,-9.100000E-10,20451.997278
1945.222579,-0.043000,-0.042114,-0.068464,-3.342600E-6,-2.220000E-9,20482.246993
1949.440784,-0.042000,-0.042114,-0.068193,-2.776067E-6,-8.300000E-10,24564.443991
1953.651693,-0.041000,-0.040100,-0.068196,-2.772667E-6,-6.300000E-10,24595.783576
1957.863617,-0.040000,-0.040100,-0.068233,-2.203667E-6,-1.410000E-9,30963.596409
1962.079333,-0.039000,-0.038147,-0.068124,-2.198000E-6,-1.450000E-9,30993.642430
1966.297974,-0.038000,-0.038147,-0.068007,-1.635933E-6,-1.050000E-9,41570.527952
1970.533341,-0.037000,-0.036133,-0.067967,-1.627933E-6,-1.070000E-9,41750.282924
1974.758236,-0.036000,-0.036133,-0.067928,-1.081400E-6,-1.770000E-9,62814.808794
1978.972852,-0.035000,-0.034119,-0.067739,-1.079533E-6,-1.410000E-9,62748.101461
1983.181713,-0.034000,-0.034119,-0.067626,-5.222667E-7,1.700000E-10,129486.316468
1987.404943,-0.033000,-0.032105,-0.067823,-5.086000E-7,-3.900000E-10,133353.233853
1991.636965,-0.032000,-0.032105,-0.067913,4.553333E-8,-3.300000E-10,-1491501.621935
1995.850715,-0.031000,-0.030152,-0.068018,3.686667E-8,-1.170000E-9,-1844973.396005
2000.046816,-0.030000,-0.030152,-0.067952,5.852000E-7,-1.830000E-9,-116118.024309
2004.267368,-0.029000,-0.028137,-0.067758,5.897333E-7,-2.210000E-9,-114895.912107
2008.484889,-0.028000,-0.028137,-0.067486,1.136267E-6,-5.500000E-10,-59392.849214
2012.700368,-0.027000,-0.026123,-0.067543,1.135667E-6,-2.000000E-10,-59474.356930
2016.915060,-0.026000,-0.026123,-0.067673,1.698133E-6,-3.000000E-11,-39851.132092
2021.139341,-0.025000,-0.024109,-0.067835,1.697067E-6,-5.400000E-10,-39971.962461
2025.367080,-0.024000,-0.024109,-0.067889,2.249000E-6,-4.100000E-10,-30186.509307
2029.581605,-0.023000,-0.022156,-0.067980,2.251867E-6,-1.790000E-9,-30188.211642
2033.811204,-0.022000,-0.022156,-0.067795,2.803867E-6,-1.900000E-10,-24179.001199
2038.026095,-0.021000,-0.020081,-0.067929,2.817800E-6,-2.310000E-9,-24106.943423
2042.247397,-0.020000,-0.020081,-0.067639,3.390067E-6,-3.640000E-9,-19951.981149
2046.463750,-0.019000,-0.018128,-0.067078,3.377133E-6,-7.200000E-10,-19862.287151
2050.681898,-0.018000,-0.018128,-0.067109,3.958933E-6,-1.920000E-9,-16951.206939
2054.890068,-0.017000,-0.016113,-0.066890,3.967733E-6,6.000000E-11,-16858.599195
2059.115765,-0.016000,-0.016113,-0.067069,4.579267E-6,-8.500000E-10,-14646.122881
2063.340706,-0.015000,-0.014099,-0.067072,4.573933E-6,-3.110000E-9,-14664.020015
2067.557829,-0.014000,-0.014099,-0.066624,5.173067E-6,-3.200000E-10,-12878.956901
2071.784997,-0.013000,-0.012085,-0.066732,5.165667E-6,-4.100000E-10,-12918.406743
2075.994129,-0.012000,-0.012085,-0.066818,5.792533E-6,4.900000E-10,-11535.140519
2080.200502,-0.011000,-0.010071,-0.067086,5.818133E-6,-1.660000E-9,-11530.478646
2084.415012,-0.010000,-0.010071,-0.066925,6.430800E-6,-5.600000E-10,-10406.972785
2088.623881,-0.009000,-0.008057,-0.066984,6.421467E-6,-1.620000E-9,-10431.186053
2092.853977,-0.008000,-0.008118,-0.066829,7.105867E-6,-5.200000E-10,-9404.788732
2097.072645,-0.007000,-0.006043,-0.066889,7.093267E-6,-1.400000E-9,-9429.985984
2101.292563,-0.006000,-0.006043,-0.066782,7.768533E-6,-2.330000E-9,-8596.411070
2105.519860,-0.005000,-0.004089,-0.066479,7.794200E-6,-1.260000E-9,-8529.305025
2109.730751,-0.004000,-0.004089,-0.066392,8.467933E-6,2.130000E-9,-7840.388282
2113.953506,-0.003000,-0.004089,-0.066994,8.481000E-6,-1.710000E-9,-7899.334662
2118.166661,-0.002000,-0.004089,-0.066821,8.474600E-6,-2.760000E-9,-7884.874558
2122.359326,-0.001000,-0.004089,-0.066436,8.465733E-6,-1.990000E-9,-7847.581322
2126.582539,4.371503E-16,0.004028,-0.066214,8.475200E-6,-9.200000E-10,-7812.718620
2130.783417,0.001000,0.004028,-0.066200,1.143687E-5,-8.100000E-10,-5788.341921
2134.985483,0.002000,0.004028,-0.066216,1.150093E-5,-1.280000E-9,-5757.447666
2139.184818,0.003000,0.004028,-0.066131,1.152400E-5,-1.590000E-9,-5738.560145
2143.379400,0.004000,0.004028,-0.065985,1.152293E-5,-8.000000E-10,-5726.363937
2147.605078,0.005000,0.004028,-0.065997,1.156420E-5,-1.150000E-9,-5707.015108
2151.795666,0.006000,0.005981,-0.065933,1.151533E-5,-1.300000E-9,-5725.695704
2156.003809,0.007000,0.005981,-0.065844,1.233253E-5,-1.330000E-9,-5339.029637
2160.210073,0.008000,0.007996,-0.065746,1.237700E-5,-1.080000E-9,-5311.964185
2164.411827,0.009000,0.007996,-0.065698,1.316007E-5,-1.900000E-9,-4992.195476
2168.609469,0.010000,0.010010,-0.065487,1.318853E-5,1.010000E-9,-4965.481786
2172.816162,0.011000,0.010010,-0.065854,1.406840E-5,-9.500000E-10,-4681.015108
2177.021016,0.012000,0.012024,-0.065839,1.407407E-5,-6.000000E-10,-4678.032970
2181.194952,0.013000,0.012024,-0.065895,1.488647E-5,-9.900000E-10,-4426.533151
2185.397426,0.014000,0.014038,-0.065863,1.491293E-5,-1.070000E-9,-4416.480914
2189.591635,0.015000,0.014038,-0.065814,1.577427E-5,-1.870000E-9,-4172.256017
2193.781205,0.016000,0.016052,-0.065604,1.583953E-5,-5.800000E-10,-4141.811819
2197.984546,0.017000,0.016052,-0.065661,1.673313E-5,-1.100000E-9,-3924.019398
2202.176952,0.018000,0.018006,-0.065600,1.668247E-5,-1.650000E-9,-3932.278478
2206.364621,0.019000,0.018006,-0.065444,1.758687E-5,-1.660000E-9,-3721.183347
2210.565126,0.020000,0.020020,-0.065285,1.768633E-5,-1.020000E-9,-3691.271845
2214.764485,0.021000,0.020020,-0.065252,1.856600E-5,-4.300000E-10,-3514.606532
2218.973034,0.022000,0.022095,-0.065339,1.857100E-5,-1.780000E-9,-3518.335789
2223.155402,0.023000,0.022095,-0.065156,1.952353E-5,-1.940000E-9,-3337.305638
2227.370682,0.024000,0.024048,-0.064941,1.955713E-5,-1.310000E-9,-3320.579643
2231.570474,0.025000,0.024048,-0.064853,2.051327E-5,-7.900000E-10,-3161.526496
2235.782045,0.026000,0.026062,-0.064859,2.051653E-5,-1.250000E-9,-3161.312907
2239.984031,0.027000,0.026062,-0.064776,2.147200E-5,-1.080000E-9,-3016.743623
2244.163833,0.028000,0.028076,-0.064731,2.151980E-5,-5.600000E-10,-3007.982101
2248.363421,0.029000,0.028076,-0.064797,2.246260E-5,-1.470000E-9,-2884.649634
2252.562990,0.030000,0.030090,-0.064668,2.249700E-5,-1.480000E-9,-2874.537124
2256.750954,0.031000,0.030090,-0.064543,2.350300E-5,-7.200000E-10,-2746.159805
2260.963418,0.032000,0.032044,-0.064572,2.350587E-5,-1.480000E-9,-2747.047437
2265.151594,0.033000,0.032044,-0.064438,2.451387E-5,-8.900000E-10,-2628.635906
2269.351075,0.034000,0.034058,-0.064432,2.445760E-5,-1.080000E-9,-2634.420396
2273.551202,0.035000,0.034058,-0.064380,2.553567E-5,-1.840000E-9,-2521.170094
2277.740009,0.036000,0.036072,-0.064184,2.556913E-5,-9.400000E-10,-2510.213948
2281.942850,0.037000,0.036072,-0.064159,2.657373E-5,-2.060000E-9,-2414.384113
2286.127653,0.038000,0.038086,-0.063912,2.652360E-5,-1.260000E-9,-2409.637644
2290.316845,0.039000,0.038086,-0.063834,2.754340E-5,-4.100000E-10,-2317.580304
2294.514526,0.040000,0.040039,-0.063924,2.751273E-5,-3.100000E-10,-2323.433259
2298.713763,0.041000,0.040039,-0.064031,2.854347E-5,-2.080000E-9,-2243.279029
2302.903010,0.042000,0.042054,-0.063788,2.850380E-5,-1.970000E-9,-2237.892364
2307.103601,0.043000,0.042054,-0.063563,2.951773E-5,-8.600000E-10,-2153.388691
2311.289562,0.044000,0.044068,-0.063555,2.953900E-5,-4.700000E-10,-2151.568470
2315.487665,0.045000,0.044068,-0.063633,3.057693E-5,-9.200000E-10,-2081.064735
2319.690140,0.046000,0.046082,-0.063614,3.053393E-5,9.600000E-10,-2083.384434
2323.893669,0.047000,0.046082,-0.063978,3.158127E-5,-1.450000E-9,-2025.815599
2328.095650,0.048000,0.048035,-0.063857,3.158853E-5,-1.580000E-9,-2021.529770
2332.293426,0.049000,0.048035,-0.063713,3.257713E-5,-1.860000E-9,-1955.760597
2336.500419,0.050000,0.050049,-0.063506,3.259727E-5,-5.200000E-10,-1948.207462
2340.710806,0.051000,0.050049,-0.063572,3.357753E-5,-1.470000E-9,-1893.279462
2344.895905,0.052000,0.052063,-0.063453,3.356067E-5,-1.200000E-9,-1890.695791
2349.095436,0.053000,0.052063,0.000000,0.000000,2.700000E-10,NaN
2363.322765,0.054000,0.054016,-0.000215,3.445680E-5,1.358700E-7,-6.244813
2367.528055,0.055000,0.054016,-0.027557,3.548887E-5,8.153000E-8,-776.507974
2371.721691,0.056000,0.056030,-0.044031,3.548320E-5,4.338000E-8,-1240.884863
2375.931474,0.057000,0.056030,-0.052875,3.650700E-5,2.407000E-8,-1448.347194
2380.123654,0.058000,0.058045,-0.057857,3.652900E-5,1.117000E-8,-1583.856596
2384.316448,0.059000,0.058045,-0.060258,3.743747E-5,5.330000E-9,-1609.571828
2388.510934,0.060000,0.060059,-0.061498,3.745347E-5,2.080000E-9,-1641.985313
2392.713109,0.061000,0.060059,-0.062087,3.839647E-5,5.200000E-10,-1616.990356
2396.910868,0.062000,0.062012,-0.062364,3.837560E-5,-1.500000E-10,-1625.101444
2401.117853,0.063000,0.062012,-0.062509,3.941407E-5,-1.000000E-11,-1585.946232
2405.315690,0.064000,0.064026,-0.062676,3.933393E-5,-1.300000E-10,-1593.437427
2409.519109,0.065000,0.064026,-0.062821,4.025087E-5,-9.200000E-10,-1560.724754
2413.739305,0.066000,0.065979,-0.062809,4.024660E-5,-1.060000E-9,-1560.593274
2417.949687,0.067000,0.065979,-0.062765,4.119520E-5,-1.870000E-9,-1523.609477
2422.168032,0.068000,0.067994,-0.062566,4.113060E-5,-1.030000E-9,-1521.149789
2426.379077,0.069000,0.067994,-0.062527,4.211540E-5,-1.050000E-9,-1484.649641
2430.571347,0.070000,0.070008,-0.062488,4.206393E-5,-1.300000E-10,-1485.552372
2434.768884,0.071000,0.070008,-0.062626,4.296767E-5,-4.400000E-10,-1457.504259
2438.970682,0.072000,0.072022,-0.062708,4.293627E-5,-1.080000E-9,-1460.501853
2443.185245,0.073000,0.072022,-0.062657,4.392433E-5,-6.000000E-10,-1426.475633
2447.384148,0.074000,0.073975,-0.062706,4.397520E-5,-1.220000E-9,-1425.945183
2451.599503,0.075000,0.073975,-0.062624,4.490140E-5,-1.930000E-9,-1394.709515
2455.800854,0.076000,0.075989,-0.062404,4.484933E-5,-1.250000E-9,-1391.403568
2460.008678,0.077000,0.075989,-0.062320,4.576240E-5,-1.060000E-9,-1361.819812
2464.225182,0.078000,0.077942,-0.062281,4.580853E-5,-8.900000E-10,-1359.591842
2468.417562,0.079000,0.077942,-0.062278,4.677827E-5,3.200000E-10,-1331.344013
2472.621445,0.080000,0.079956,-0.062513,4.671580E-5,-1.040000E-9,-1338.157978
2476.834618,0.081000,0.079956,-0.062470,4.763420E-5,2.600000E-10,-1311.442612
2481.043262,0.082000,0.081971,-0.062682,4.759733E-5,-1.060000E-9,-1316.932906
2485.260429,0.083000,0.081971,-0.062640,4.855920E-5,-1.890000E-9,-1289.969299
2489.480494,0.084000,0.083985,-0.062430,4.848640E-5,-1.500000E-9,-1287.576509
2493.704849,0.085000,0.083985,-0.062295,4.932707E-5,-2.300000E-9,-1262.903348
2497.910905,0.086000,0.085938,-0.062008,4.937233E-5,-1.130000E-9,-1255.931736
2502.123004,0.087000,0.085938,-0.061947,5.018220E-5,-3.200000E-10,-1234.451405
2506.345993,0.088000,0.087952,-0.062055,5.025193E-5,3.300000E-10,-1234.870581
2510.560532,0.089000,0.087952,-0.062287,5.117440E-5,9.000000E-11,-1217.159607
2514.785644,0.090000,0.089966,-0.062476,5.105780E-5,-2.310000E-9,-1223.635484
2518.996625,0.091000,0.089966,-0.062180,5.204793E-5,-4.700000E-10,-1194.659070
2523.204873,0.092000,0.091919,-0.062257,5.198360E-5,-1.790000E-9,-1197.624117
2527.405467,0.093000,0.091919,-0.062063,5.283267E-5,4.300000E-10,-1174.711952
2531.620346,0.094000,0.093934,-0.062316,5.283647E-5,-6.500000E-10,-1179.407354
2535.838750,0.095000,0.093934,-0.062352,5.368133E-5,-8.900000E-10,-1161.527352
2540.051323,0.096000,0.095948,-0.062342,5.358547E-5,0.000000,-1163.406545
2544.257663,0.097000,0.095948,-0.062513,5.442940E-5,-1.830000E-9,-1148.518770
2548.464182,0.098000,0.097962,-0.062311,5.439033E-5,-1.320000E-9,-1145.620087
2552.674454,0.099000,0.097962,-0.062216,5.532873E-5,-1.660000E-9,-1124.483714
2556.869386,0.100000,0.099915,-0.062057,5.532607E-5,-4.500000E-10,-1121.665270
2561.088362,0.101000,0.099915,-0.062129,5.621573E-5,2.000000E-11,-1105.185278
2565.304847,0.102000,0.101929,-0.062309,5.617480E-5,-1.690000E-9,-1109.195723
2569.530148,0.103000,0.101929,-0.062143,5.712200E-5,-1.040000E-9,-1087.904700
2573.751826,0.104000,0.103943,-0.062105,5.708893E-5,-3.100000E-10,-1087.871716
2577.950078,0.105000,0.103943,-0.062214,5.786913E-5,-3.100000E-9,-1075.084412
2582.159845,0.106000,0.105958,-0.061767,5.782720E-5,-6.000000E-11,-1068.125685
2586.359550,0.107000,0.105958,-0.061930,5.868913E-5,-1.000000E-9,-1055.220721
2590.563165,0.108000,0.107911,-0.061895,5.871080E-5,-5.100000E-10,-1054.237903
2594.776788,0.109000,0.107911,-0.061961,5.958993E-5,3.200000E-10,-1039.790638
2598.983858,0.110000,0.109925,-0.062197,5.955840E-5,-1.080000E-9,-1044.294350
2603.177651,0.111000,0.109925,-0.062147,6.047840E-5,-3.100000E-10,-1027.583038
2607.393387,0.112000,0.111878,-0.062257,6.047413E-5,-2.750000E-9,-1029.484790
2611.582714,0.113000,0.111878,-0.061877,6.123360E-5,-2.370000E-9,-1010.508598
2615.784843,0.114000,0.113892,-0.061576,6.110807E-5,-2.330000E-9,-1007.663408
2619.994635,0.115000,0.113892,-0.061281,6.195973E-5,-1.900000E-10,-989.048569
2624.189176,0.116000,0.115906,-0.061414,6.198113E-5,-9.300000E-10,-990.853204
2628.392449,0.117000,0.115906,-0.061399,6.293727E-5,-7.700000E-10,-975.565149
2632.607172,0.118000,0.117920,-0.061417,6.298507E-5,1.100000E-9,-975.106730
2636.791684,0.119000,0.117920,-0.061804,6.390760E-5,-1.500000E-10,-967.089852
2641.003662,0.120000,0.119874,-0.061942,6.386580E-5,-1.480000E-9,-969.877928
2645.215398,0.121000,0.119874,-0.061817,6.465253E-5,-1.300000E-9,-956.137548
2649.392148,0.122000,0.121888,-0.061718,6.461667E-5,-1.000000E-9,-955.147521
2653.586140,0.123000,0.121888,-0.061685,6.555913E-5,-9.400000E-10,-940.904736
2657.795126,0.124000,0.123902,-0.061662,6.555427E-5,-1.500000E-9,-940.628678
2661.995272,0.125000,0.123902,-0.061525,6.631300E-5,-3.400000E-10,-927.797388
2666.205892,0.126000,0.125916,-0.061626,6.634400E-5,-7.900000E-10,-928.881573
2670.406498,0.127000,0.125916,-0.061644,6.713560E-5,-1.530000E-9,-918.208793
2674.593613,0.128000,0.127870,-0.061514,6.715807E-5,-5.900000E-10,-915.952555
2678.801108,0.129000,0.127870,-0.061560,6.811147E-5,4.800000E-10,-903.811990
2683.000429,0.130000,0.129884,-0.061825,6.813400E-5,-3.200000E-10,-907.406281
2687.208717,0.131000,0.129884,-0.061931,6.890640E-5,-1.110000E-9,-898.762885
2691.412874,0.132000,0.131837,-0.061873,6.891007E-5,-1.820000E-9,-897.886050
2695.604507,0.133000,0.131837,-0.061674,6.984220E-5,-1.930000E-9,-883.042274
2699.811725,0.134000,0.133851,-0.061454,6.979153E-5,-1.510000E-9,-880.539036
2704.025763,0.135000,0.133851,-0.061316,7.059113E-5,-1.040000E-9,-868.607650
2708.232471,0.136000,0.135865,-0.061285,7.053187E-5,-1.390000E-9,-868.900253
2712.446895,0.137000,0.135865,-0.061177,7.149513E-5,-1.350000E-9,-855.679062
2716.644279,0.138000,0.137879,-0.061072,7.155473E-5,-1.140000E-9,-853.502148
2720.846735,0.139000,0.137879,-0.061015,7.237867E-5,2.600000E-10,-842.991491
2725.057508,0.140000,0.139894,-0.061235,7.231793E-5,-2.240000E-9,-846.751621
2729.252852,0.141000,0.139894,-0.060956,7.323027E-5,-9.200000E-10,-832.388134
2733.464893,0.142000,0.141847,-0.060937,7.325433E-5,-1.980000E-9,-831.861411
2737.662675,0.143000,0.141847,-0.060703,7.418233E-5,-1.750000E-9,-818.297903
2741.867600,0.144000,0.143861,-0.060521,7.418107E-5,-1.220000E-9,-815.861294
2746.060310,0.145000,0.143861,-0.060448,7.515307E-5,1.080000E-9,-804.337807
2750.241171,0.146000,0.145814,-0.060829,7.512500E-5,-2.050000E-9,-809.698900
2754.432782,0.147000,0.145814,-0.060581,7.602587E-5,-8.400000E-10,-796.851802
2758.636031,0.148000,0.147828,-0.060589,7.598247E-5,-1.240000E-9,-797.410891
2762.829855,0.149000,0.147828,-0.060506,7.675740E-5,-1.530000E-9,-788.273959
2767.026656,0.150000,0.149842,-0.060362,7.675613E-5,-4.300000E-10,-786.410930
2771.232437,0.151000,0.149842,-0.060446,7.758500E-5,-6.200000E-10,-779.098575
2775.433228,0.152000,0.151856,-0.060489,7.750793E-5,-1.220000E-9,-780.418084
2779.620441,0.153000,0.151856,-0.060411,7.834833E-5,-2.920000E-9,-771.061298
2783.819424,0.154000,0.153810,-0.059988,7.830427E-5,-2.430000E-9,-766.089849
2788.032381,0.155000,0.153810,-0.059665,7.915327E-5,1.150000E-9,-753.785029
2792.226325,0.156000,0.155824,-0.060065,7.912720E-5,-1.380000E-9,-759.092586
2796.422029,0.157000,0.155824,-0.059959,7.993593E-5,-2.100000E-10,-750.085189
2800.623354,0.158000,0.157838,-0.060086,8.003813E-5,9.900000E-10,-750.712652
2804.816644,0.159000,0.157838,-0.060456,8.096073E-5,2.200000E-10,-746.728919
2809.019651,0.160000,0.159791,-0.060670,8.102180E-5,-1.270000E-9,-748.810349
2813.217502,0.161000,0.159791,-0.060587,8.179887E-5,-9.200000E-10,-740.685003
2817.417145,0.162000,0.161805,-0.060576,8.200227E-5,3.800000E-10,-738.715459
2821.610559,0.163000,0.161805,-0.060822,8.283640E-5,-1.650000E-9,-734.239992
2825.803746,0.164000,0.163819,-0.060653,8.278847E-5,-1.580000E-9,-732.631661
2829.995781,0.165000,0.163819,-0.060504,8.377660E-5,4.000000E-11,-722.208137
2834.180324,0.166000,0.165772,-0.060676,8.379553E-5,-1.540000E-9,-724.100688
2838.367750,0.167000,0.165772,-0.060534,8.465747E-5,-1.630000E-9,-715.041190
2842.542749,0.168000,0.167787,-0.060379,8.461247E-5,-1.060000E-9,-713.596220
2846.743804,0.169000,0.167787,-0.060330,8.549707E-5,-1.250000E-9,-705.634843
2850.945171,0.170000,0.169801,-0.060243,8.545060E-5,-2.220000E-9,-705.009138
2855.127248,0.171000,0.169801,-0.059970,8.627913E-5,-1.520000E-9,-695.064893
2859.320821,0.172000,0.171815,-0.059836,8.627047E-5,-1.970000E-9,-693.589856
2863.502955,0.173000,0.171815,-0.059606,8.723527E-5,-6.700000E-10,-683.275254
2867.683385,0.174000,0.173768,-0.059631,8.730647E-5,-1.690000E-9,-683.009248
2871.885585,0.175000,0.173768,-0.059463,8.811553E-5,-1.410000E-9,-674.826704
2876.053607,0.176000,0.175782,-0.059344,8.816280E-5,-1.040000E-9,-673.120704
2880.236350,0.177000,0.175782,-0.059306,8.895820E-5,-9.600000E-10,-666.677597
2884.442549,0.178000,0.177796,-0.059277,8.889380E-5,-7.400000E-10,-666.831439
2888.621742,0.179000,0.177796,-0.059295,8.967813E-5,-1.450000E-9,-661.201157
2892.816752,0.180000,0.179749,-0.059176,8.978080E-5,-3.100000E-10,-659.113831
2897.015317,0.181000,0.179749,-0.059282,9.061253E-5,-1.000000E-9,-654.241275
2901.198381,0.182000,0.181764,-0.059246,9.064473E-5,-8.300000E-10,-653.601712
2905.389890,0.183000,0.181764,-0.059253,9.157580E-5,-7.500000E-10,-647.033033
2909.589027,0.184000,0.183778,-0.059279,9.154953E-5,-1.390000E-9,-647.507259
2913.798690,0.185000,0.183778,-0.059167,9.225060E-5,-9.000000E-10,-641.375001
2917.988670,0.186000,0.185792,-0.059157,9.239813E-5,-1.070000E-9,-640.238462
2922.197021,0.187000,0.185792,-0.059117,9.318213E-5,-2.800000E-10,-634.421123
2926.386089,0.188000,0.187745,-0.059235,9.329313E-5,6.000000E-11,-634.935777
2930.571463,0.189000,0.187745,-0.059418,9.400473E-5,-1.130000E-9,-632.079115
2934.758407,0.190000,0.189759,-0.059355,9.400700E-5,-6.200000E-10,-631.394324
2938.958391,0.191000,0.189759,-0.059401,9.476000E-5,-1.150000E-9,-626.852546
2943.139723,0.192000,0.191712,-0.059338,9.487967E-5,-7.900000E-10,-625.397674
2947.348785,0.193000,0.191712,-0.059348,9.560980E-5,-1.450000E-9,-620.729304
2951.549305,0.194000,0.193727,-0.059229,9.557627E-5,-1.750000E-9,-619.701809
2955.740842,0.195000,0.193727,-0.059048,9.633400E-5,-9.200000E-10,-612.949623
2959.946502,0.196000,0.195741,-0.059030,9.640127E-5,-1.280000E-9,-612.340875
2964.135434,0.197000,0.195741,-0.058941,9.703573E-5,-9.100000E-10,-607.413485
2968.331278,0.198000,0.197755,-0.058935,9.718887E-5,-9.600000E-10,-606.391918
2972.530729,0.199000,0.197755,-0.058916,9.811347E-5,-8.900000E-10,-600.483997
2976.736728,0.200000,0.199708,-0.058904,9.815560E-5,-6.900000E-10,-600.112532
2980.934566,0.201000,0.199708,-0.058929,9.896780E-5,-2.900000E-10,-595.435452
2985.142883,0.202000,0.201722,-0.059037,9.895593E-5,-2.900000E-10,-596.595276
2989.338620,0.203000,0.201722,-0.059142,9.969120E-5,-9.900000E-10,-593.254363
2993.543487,0.204000,0.203736,-0.059107,9.967167E-5,-1.670000E-9,-593.019371
2997.733687,0.205000,0.203736,-0.058946,0.000101,-2.760000E-9,-586.502541
3001.913532,0.206000,0.205750,-0.058561,0.000100,-6.300000E-10,-582.777551
3006.122918,0.207000,0.205750,-0.058607,0.000101,-8.700000E-10,-578.695877
3010.303882,0.208000,0.207704,-0.058607,0.000101,-1.540000E-9,-578.357109
3014.502822,0.209000,0.207704,-0.058466,0.000102,-1.650000E-9,-572.820941
3018.680562,0.210000,0.209718,-0.058302,0.000102,-7.100000E-10,-571.068309
3022.869659,0.211000,0.209718,-0.058324,0.000103,-6.900000E-10,-567.254375
3027.063488,0.212000,0.211671,-0.058359,0.000103,-1.000000E-11,-567.753944
3031.253755,0.213000,0.211671,-0.058524,0.000104,-2.050000E-9,-564.512451
3035.474423,0.214000,0.213685,-0.058287,0.000104,-7.500000E-10,-561.815690
3039.692642,0.215000,0.213685,-0.058300,0.000104,-6.300000E-10,-557.967177
3043.883561,0.216000,0.215699,-0.058346,0.000104,-2.400000E-10,-559.260497
3048.095753,0.217000,0.215699,-0.058472,0.000105,3.600000E-10,-555.939118
3052.304273,0.218000,0.217713,-0.058709,0.000105,-1.920000E-9,-558.161101
3056.526086,0.219000,0.217713,-0.058498,0.000106,-1.020000E-9,-552.390438
3060.736112,0.220000,0.219666,-0.058464,0.000106,9.000000E-11,-551.511239
3064.939378,0.221000,0.219666,-0.058644,0.000107,-2.300000E-9,-549.269139
3069.143522,0.222000,0.221681,-0.058358,0.000107,-1.370000E-9,-546.051555
3073.358357,0.223000,0.221681,-0.058258,0.000108,-5.000000E-11,-541.633013
3077.552731,0.224000,0.223695,-0.058416,0.000108,-1.000000E-11,-543.252384
3081.746605,0.225000,0.223695,-0.058578,0.000109,-9.400000E-10,-539.514400
3085.941098,0.226000,0.225648,-0.058553,0.000109,-1.220000E-9,-538.782901
3090.151053,0.227000,0.225709,-0.058482,0.000109,-1.600000E-10,-534.559432
3094.349599,0.228000,0.227662,-0.058624,0.000109,-9.600000E-10,-535.998689
3098.522525,0.229000,0.227662,-0.058599,0.000110,-7.200000E-10,-532.208554
3102.735946,0.230000,0.229676,-0.058627,0.000110,-7.100000E-10,-532.196245
3106.933032,0.231000,0.229676,-0.058659,0.000111,-1.850000E-9,-529.279814
3111.129228,0.232000,0.231690,-0.058459,0.000111,-1.450000E-9,-527.771465
3115.323509,0.233000,0.231690,-0.058332,0.000112,-1.490000E-9,-523.159252
3119.503620,0.234000,0.233644,-0.058205,0.000111,-1.450000E-9,-522.863891
3123.702650,0.235000,0.233644,-0.058081,0.000112,-1.640000E-9,-518.259115
3127.894664,0.236000,0.235658,-0.057921,0.000112,-7.600000E-10,-514.883640
3132.088368,0.237000,0.235658,-0.057942,0.000113,-8.000000E-11,-511.552419
3136.296947,0.238000,0.237672,-0.058092,0.000113,-4.100000E-10,-513.264508
3140.495891,0.239000,0.237672,-0.058174,0.000114,-8.500000E-10,-510.220593
3144.682004,0.240000,0.239686,-0.058167,0.000114,-9.200000E-10,-510.147826
3148.861390,0.241000,0.239686,-0.058158,0.000115,-1.800000E-10,-506.287810
3153.058881,0.242000,0.241639,-0.058288,0.000115,-2.210000E-9,-507.691922
3157.262077,0.243000,0.241639,-0.058011,0.000116,-8.400000E-10,-502.112731
3161.469581,0.244000,0.243653,-0.058010,0.000116,-2.400000E-10,-501.943207
3165.662443,0.245000,0.243653,-0.058122,0.000116,-1.400000E-10,-499.522532
3169.841931,0.246000,0.245606,-0.058259,0.000116,4.700000E-10,-500.451722
3174.043601,0.247000,0.245606,-0.058519,0.000117,-7.800000E-10,-499.534731
3178.245642,0.248000,0.247621,-0.058530,0.000117,-1.990000E-9,-499.314712
3182.437168,0.249000,0.247621,-0.058302,0.000118,-8.300000E-10,-494.950247
3186.636755,0.250000,0.249635,-0.058306,0.000118,-1.130000E-9,-494.422806
3190.842537,0.251000,0.249635,-0.058250,0.000119,-1.000000E-11,-489.609697
3195.047230,0.252000,0.251650,-0.058416,0.000119,-1.200000E-10,-490.448403
3199.265558,0.253000,0.251650,-0.058560,0.000120,-7.900000E-10,-488.696206
3203.465591,0.254000,0.253603,-0.058565,0.000120,-7.500000E-10,-488.639140
3207.672118,0.255000,0.253603,-0.058581,0.000120,-1.340000E-9,-486.883283
3211.889120,0.256000,0.255617,-0.058487,0.000121,-6.600000E-10,-484.966626
3216.100644,0.257000,0.255617,-0.058519,0.000121,-1.680000E-9,-482.247619
3220.310620,0.258000,0.257570,-0.058355,0.000121,1.600000E-10,-481.183363
3224.522096,0.259000,0.257570,-0.058556,0.000122,-5.300000E-10,-479.089101
3228.727861,0.260000,0.259584,-0.058622,0.000122,4.400000E-10,-479.590416
3232.913511,0.261000,0.259584,-0.058880,0.000123,-1.280000E-9,-479.053767
3237.105743,0.262000,0.261599,-0.058792,0.000123,-1.900000E-9,-478.138940
3241.299344,0.263000,0.261599,-0.058582,0.000124,-2.340000E-9,-473.650841
3245.506899,0.264000,0.263613,-0.058282,0.000123,-7.100000E-10,-472.447544
3249.692680,0.265000,0.263613,-0.058310,0.000124,-2.390000E-9,-469.359038
3253.891761,0.266000,0.265566,-0.057996,0.000124,-1.000000E-9,-466.764894
3258.102684,0.267000,0.265566,-0.057966,0.000125,-4.800000E-10,-464.046272
3262.299532,0.268000,0.267580,-0.058037,0.000125,-1.580000E-9,-464.368845
3266.483664,0.269000,0.267580,-0.057893,0.000126,-5.000000E-11,-459.726500
3270.673680,0.270000,0.269533,-0.058055,0.000126,2.000000E-10,-460.616571
3274.877579,0.271000,0.269533,-0.058262,0.000127,-5.700000E-10,-460.161343
3279.063332,0.272000,0.271547,-0.058323,0.000127,-2.260000E-9,-461.036530
3283.261718,0.273000,0.271547,-0.058041,0.000127,-1.270000E-9,-455.506201
3287.475562,0.274000,0.273561,-0.057955,0.000128,-6.100000E-10,-454.429341
3291.672683,0.275000,0.273561,-0.058003,0.000128,-5.100000E-10,-452.314401
3295.869528,0.276000,0.275576,-0.058064,0.000128,4.000000E-11,-452.116438
3300.056842,0.277000,0.275576,-0.058240,0.000129,-7.600000E-10,-451.157754
3304.269815,0.278000,0.277590,-0.058262,0.000129,-9.900000E-10,-451.994211
3308.473855,0.279000,0.277590,-0.058232,0.000130,-3.000000E-10,-449.210526
3312.689497,0.280000,0.279543,-0.058335,0.000130,-7.300000E-10,-448.638870
3316.901574,0.281000,0.279543,-0.058363,0.000131,-4.200000E-10,-446.739474
3321.087281,0.282000,0.281557,-0.058452,0.000131,-3.900000E-10,-447.581615
3325.292095,0.283000,0.281557,-0.058542,0.000131,-9.500000E-10,-446.341806
3329.499286,0.284000,0.283571,-0.058521,0.000131,-1.160000E-9,-445.992333
3333.696294,0.285000,0.283510,-0.058459,0.000132,6.100000E-10,-442.852971
3337.887286,0.286000,0.285585,-0.058752,0.000132,-1.250000E-9,-445.053752
3342.099566,0.287000,0.285585,-0.058662,0.000133,-7.500000E-10,-441.763759
3346.295890,0.288000,0.287539,-0.058674,0.000133,-2.100000E-10,-441.470560
3350.485062,0.289000,0.287539,-0.058804,0.000133,-1.400000E-10,-440.522538
3354.671082,0.290000,0.289553,-0.058946,0.000134,1.000000E-11,-440.713692
3358.882048,0.291000,0.289553,-0.059123,0.000134,-2.450000E-9,-439.645920
3363.066726,0.292000,0.291506,-0.058800,0.000134,-1.940000E-9,-437.256461
3367.252315,0.293000,0.291506,-0.058581,0.000135,-1.670000E-9,-433.347612
3371.446732,0.294000,0.293520,-0.058415,0.000135,-7.000000E-10,-432.658216
3375.649481,0.295000,0.293520,-0.058448,0.000136,-1.810000E-9,-430.464844
3379.850433,0.296000,0.295534,-0.058258,0.000136,-3.600000E-10,-429.041126
3384.038732,0.297000,0.295534,-0.058359,0.000137,-1.160000E-9,-427.204240
3388.233368,0.298000,0.297548,-0.058297,0.000137,-1.190000E-9,-426.917385
3392.415352,0.299000,0.297548,-0.058223,0.000137,-4.900000E-10,-423.681527
3396.627269,0.300000,0.299501,-0.058290,0.000138,-1.280000E-9,-423.675159
3400.832119,0.301000,0.299501,-0.058203,0.000138,-1.520000E-9,-421.365494
3405.031762,0.302000,0.301516,-0.058063,0.000138,-1.020000E-9,-420.233999
3409.244264,0.303000,0.301516,-0.058030,0.000139,-1.130000E-9,-417.560127
3413.453914,0.304000,0.303469,-0.057977,0.000139,-2.400000E-10,-416.728422
3417.653874,0.305000,0.303469,-0.058100,0.000140,-5.500000E-10,-415.612162
3421.845565,0.306000,0.305483,-0.058155,0.000140,-1.700000E-10,-416.219564
3426.048722,0.307000,0.305483,-0.058288,0.000140,-1.220000E-9,-415.539654
3430.252729,0.308000,0.307497,-0.058208,0.000140,-1.300000E-10,-415.249081
3434.457918,0.309000,0.307497,-0.058348,0.000141,-5.300000E-10,-414.355851
3438.650426,0.310000,0.309511,-0.058414,0.000141,-9.000000E-10,-414.628750
3442.840086,0.311000,0.309511,-0.058403,0.000141,-2.390000E-9,-412.782184
3447.031616,0.312000,0.311464,-0.058090,0.000142,-9.000000E-11,-410.024729
3451.219669,0.313000,0.311464,-0.058237,0.000142,-8.900000E-10,-408.905260
3455.412498,0.314000,0.313478,-0.058228,0.000143,-1.830000E-9,-408.464205
3459.617872,0.315000,0.313478,-0.058025,0.000143,-1.210000E-9,-404.910087
3463.826134,0.316000,0.315493,-0.057957,0.000143,-6.700000E-10,-404.053146
3468.023206,0.317000,0.315493,-0.057994,0.000144,-8.000000E-11,-402.406882
3472.241663,0.318000,0.317507,-0.058151,0.000144,1.200000E-10,-403.140302
3476.430795,0.319000,0.317507,-0.058341,0.000145,-1.170000E-9,-402.776496
3480.632129,0.320000,0.319460,-0.058274,0.000145,-1.100000E-10,-402.205313
3484.817979,0.321000,0.319460,-0.058416,0.000145,-7.800000E-10,-402.010175
3489.003405,0.322000,0.321474,-0.058431,0.000145,-2.800000E-10,-402.388536
3493.210345,0.323000,0.321474,-0.058538,0.000146,-2.190000E-9,-401.050942
3497.420660,0.324000,0.323427,-0.058264,0.000146,-1.290000E-9,-398.242022
3501.604607,0.325000,0.323488,-0.058173,0.000147,-6.000000E-11,-395.685285
3505.799056,0.326000,0.325441,-0.058332,0.000147,-1.190000E-9,-396.505867
3509.988887,0.327000,0.325441,-0.058268,0.000148,-6.200000E-10,-394.427553
3514.178374,0.328000,0.327456,-0.058311,0.000148,-4.100000E-10,-395.247821
3518.365434,0.329000,0.327456,-0.058400,0.000148,3.900000E-10,-393.785333
3522.560939,0.330000,0.329470,-0.058652,0.000148,-9.400000E-10,-395.561446
3526.753879,0.331000,0.329409,-0.058630,0.000149,-1.390000E-9,-393.937222
3530.948732,0.332000,0.331423,-0.058513,0.000149,-9.500000E-10,-392.645102
3535.136610,0.333000,0.331484,-0.058493,0.000150,-1.060000E-9,-390.619563
3539.346664,0.334000,0.333437,-0.058444,0.000150,-7.900000E-10,-390.548065
3543.549757,0.335000,0.333437,-0.058456,0.000150,-2.620000E-9,-388.846743
3547.754569,0.336000,0.335451,-0.058096,0.000150,4.700000E-10,-386.067562
3551.932068,0.337000,0.335451,-0.058362,0.000151,-6.300000E-10,-386.123227
3556.145954,0.338000,0.337404,-0.058400,0.000151,1.000000E-10,-386.294644
3560.358048,0.339000,0.337404,-0.058583,0.000152,-1.400000E-9,-385.794349
3564.567366,0.340000,0.339418,-0.058471,0.000152,1.800000E-10,-384.830285
3568.771990,0.341000,0.339418,-0.058671,0.000152,-1.600000E-10,-384.756908
3572.974501,0.342000,0.341372,-0.058806,0.000152,-1.270000E-9,-385.834551
3577.171893,0.343000,0.341433,-0.058724,0.000153,2.200000E-10,-383.849996
3581.379316,0.344000,0.343447,-0.058940,0.000153,-7.100000E-10,-384.999647
3585.588253,0.345000,0.343386,-0.058971,0.000154,-3.700000E-10,-383.606749
3589.792835,0.346000,0.345400,-0.059063,0.000154,-4.100000E-10,-383.457253
3593.998645,0.347000,0.345400,-0.059146,0.000155,-1.850000E-9,-382.773783
3598.180424,0.348000,0.347414,-0.058939,0.000155,4.600000E-10,-381.134359
3602.370944,0.349000,0.347414,-0.059195,0.000155,-4.400000E-10,-381.101021
3606.567401,0.350000,0.349428,-0.059279,0.000155,-1.830000E-9,-381.416755
3610.768649,0.351000,0.349367,-0.059077,0.000156,-1.710000E-9,-377.932254
3614.956814,0.352000,0.351381,-0.058898,0.000156,-3.700000E-10,-376.610456
3619.148323,0.353000,0.351381,-0.058995,0.000157,-5.100000E-10,-375.851713
3623.350589,0.354000,0.353395,-0.059068,0.000157,-1.670000E-9,-376.402032
3627.561853,0.355000,0.353395,-0.058908,0.000158,-8.400000E-10,-373.448737
3631.758512,0.356000,0.355410,-0.058913,0.000158,-2.020000E-9,-373.083808
3635.954283,0.357000,0.355410,-0.058680,0.000159,-1.540000E-9,-369.922083
3640.144608,0.358000,0.357363,-0.058536,0.000159,-1.430000E-9,-369.025557
3644.349758,0.359000,0.357363,-0.058425,0.000159,-8.000000E-10,-366.697523
3648.548551,0.360000,0.359377,-0.058433,0.000159,-8.400000E-10,-366.355027
3652.740170,0.361000,0.359377,-0.058431,0.000160,-4.200000E-10,-365.010248
3656.928366,0.362000,0.361391,-0.058515,0.000160,-1.000000E-10,-365.081083
3661.147876,0.363000,0.361391,-0.058659,0.000161,-1.200000E-9,-364.132346
3665.340626,0.364000,0.363405,-0.058584,0.000161,-3.500000E-10,-363.967577
3669.542808,0.365000,0.363344,-0.058679,0.000161,2.500000E-10,-363.338705
3673.742214,0.366000,0.365358,-0.058891,0.000162,-7.100000E-10,-364.251902
3677.959697,0.367000,0.365358,-0.058915,0.000162,-1.300000E-10,-363.286899
3682.146029,0.368000,0.367373,-0.059058,0.000162,-2.000000E-11,-363.957417
3686.343680,0.369000,0.367373,-0.059221,0.000163,1.010000E-9,-363.267517
3690.555295,0.370000,0.369387,-0.059593,0.000163,-1.130000E-9,-365.882591
3694.738467,0.371000,0.369387,-0.059538,0.000164,-1.000000E-10,-363.713036
3698.931591,0.372000,0.371340,-0.059688,0.000164,-1.220000E-9,-364.928809
3703.129298,0.373000,0.371340,-0.059617,0.000164,-1.190000E-9,-363.362571
3707.321259,0.374000,0.373354,-0.059545,0.000164,-1.970000E-9,-362.902103
3711.511968,0.375000,0.373354,-0.059323,0.000165,-1.760000E-9,-360.439944
3715.702737,0.376000,0.375368,-0.059134,0.000165,-8.200000E-10,-358.189264
3719.908848,0.377000,0.375368,-0.059133,0.000166,-9.500000E-10,-356.701568
3724.093351,0.378000,0.377382,-0.059116,0.000165,-5.100000E-10,-357.270394
3728.309470,0.379000,0.377382,-0.059185,0.000166,-2.000000E-11,-356.069355
3732.498311,0.380000,0.379335,-0.059344,0.000166,-1.350000E-9,-357.314517
3736.694468,0.381000,0.379335,-0.059240,0.000167,-1.920000E-9,-355.585726
3740.882627,0.382000,0.381350,-0.059020,0.000166,-2.060000E-9,-354.527239
3745.088419,0.383000,0.381350,-0.058779,0.000167,-6.500000E-10,-351.030099
3749.294087,0.384000,0.383303,-0.058820,0.000168,-2.700000E-10,-351.156620
3753.499313,0.385000,0.383303,-0.058938,0.000168,-3.900000E-10,-350.361927
3757.703739,0.386000,0.385317,-0.059033,0.000168,-4.600000E-10,-351.122134
3761.902569,0.387000,0.385317,-0.059110,0.000169,-8.300000E-10,-350.063102
3766.085930,0.388000,0.387331,-0.059114,0.000169,-1.650000E-9,-349.866749
3770.284753,0.389000,0.387331,-0.058955,0.000170,1.600000E-10,-347.240717
3774.487374,0.390000,0.389284,-0.059155,0.000170,-5.900000E-10,-348.725595
3778.696461,0.391000,0.389345,-0.059200,0.000170,-1.310000E-9,-347.552486
3782.904441,0.392000,0.391298,-0.059109,0.000170,-6.700000E-10,-347.189200
3787.102711,0.393000,0.391298,-0.059147,0.000171,-1.290000E-9,-346.495776
3791.292374,0.394000,0.393312,-0.059061,0.000171,-3.000000E-10,-345.842030
3795.499629,0.395000,0.393312,-0.059170,0.000171,-1.600000E-10,-345.096110
3799.691185,0.396000,0.395327,-0.059307,0.000172,-6.400000E-10,-345.055881
3803.908704,0.397000,0.395327,-0.059342,0.000172,-7.800000E-10,-344.314851
3808.118051,0.398000,0.397280,-0.059356,0.000172,6.800000E-10,-344.644979
3812.307741,0.399000,0.397280,-0.059658,0.000173,-1.610000E-9,-345.642520
3816.528835,0.400000,0.399294,-0.059497,0.000173,-1.100000E-10,-344.858428
3820.743482,0.401000,0.399294,-0.059639,0.000173,-7.600000E-10,-344.186084
3824.939276,0.402000,0.401308,-0.059650,0.000174,-1.560000E-9,-343.735537
3829.132673,0.403000,0.401308,-0.059512,0.000174,-5.600000E-10,-341.570717
3833.323495,0.404000,0.403261,-0.059573,0.000174,-1.480000E-9,-341.750848
3837.515442,0.405000,0.403261,-0.059444,0.000175,-5.000000E-10,-340.007012
3841.717259,0.406000,0.405275,-0.059509,0.000175,-4.000000E-11,-340.345903
3845.911439,0.407000,0.405275,-0.059662,0.000176,-1.420000E-9,-339.928272
3850.119782,0.408000,0.407290,-0.059539,0.000176,-1.280000E-9,-338.570531
3854.335832,0.409000,0.407290,-0.059449,0.000176,-1.700000E-10,-336.890699
3858.521249,0.410000,0.409243,-0.059582,0.000176,-6.400000E-10,-337.727016
3862.726445,0.411000,0.409304,-0.059626,0.000177,-1.650000E-9,-336.774017
3866.928488,0.412000,0.411257,-0.059460,0.000177,-4.700000E-10,-336.047890
3871.129936,0.413000,0.411257,-0.059537,0.000178,-1.310000E-9,-334.935239
3875.334555,0.414000,0.413271,-0.059448,0.000178,-1.180000E-9,-334.386947
3879.544615,0.415000,0.413271,-0.059375,0.000178,-8.300000E-10,-333.063505
3883.731041,0.416000,0.415285,-0.059379,0.000178,-8.400000E-10,-333.179159
3887.925349,0.417000,0.415285,-0.059378,0.000179,-1.110000E-9,-331.945104
3892.120502,0.418000,0.417238,-0.059327,0.000179,-8.900000E-10,-332.020461
3896.314298,0.419000,0.417238,-0.059320,0.000179,-8.400000E-10,-331.113018
3900.498564,0.420000,0.419252,-0.059318,0.000179,-1.280000E-9,-330.894833
3904.689318,0.421000,0.419252,-0.059226,0.000180,-5.900000E-10,-329.648215
3908.886452,0.422000,0.421267,-0.059281,0.000180,1.200000E-10,-329.491279
3913.092840,0.423000,0.421267,-0.059473,0.000180,-2.900000E-10,-329.513431
3917.293357,0.424000,0.423281,-0.059583,0.000180,-4.700000E-10,-330.115457
3921.495718,0.425000,0.423281,-0.059658,0.000181,-1.100000E-10,-329.201800
3925.691557,0.426000,0.425234,-0.059799,0.000181,4.200000E-10,-330.250898
3929.896992,0.427000,0.425234,-0.060049,0.000182,2.100000E-10,-330.306125
3934.099646,0.428000,0.427248,-0.060257,0.000182,-9.300000E-10,-331.471024
3938.301546,0.429000,0.427248,-0.060236,0.000182,-8.800000E-10,-330.758285
3942.506155,0.430000,0.429262,-0.060227,0.000182,-4.000000E-10,-330.823548
3946.709207,0.431000,0.429262,-0.060314,0.000183,-1.070000E-9,-329.094942
3950.922706,0.432000,0.431276,-0.060271,0.000183,-1.260000E-9,-328.961231
3955.126398,0.433000,0.431215,-0.060182,0.000184,-8.200000E-10,-327.895848
3959.320401,0.434000,0.433229,-0.060195,0.000184,3.300000E-10,-327.119597
3963.519937,0.435000,0.433229,-0.060430,0.000185,-6.800000E-10,-326.620822
3967.715048,0.436000,0.435244,-0.060468,0.000185,-1.620000E-9,-326.950401
3971.909525,0.437000,0.435244,-0.060313,0.000185,-9.900000E-10,-325.169733
3976.087433,0.438000,0.437197,-0.060288,0.000185,-9.200000E-10,-325.975718
3980.296467,0.439000,0.437197,-0.060277,0.000186,-1.600000E-10,-324.257129
3984.477138,0.440000,0.439211,-0.060414,0.000186,-3.000000E-10,-324.826266
3988.669246,0.441000,0.439211,-0.060524,0.000187,-6.000000E-10,-324.490840
3992.855205,0.442000,0.441225,-0.060574,0.000186,-1.150000E-9,-324.856851
3997.064478,0.443000,0.441225,-0.060516,0.000187,-4.600000E-10,-323.535742
4001.270211,0.444000,0.443239,-0.060598,0.000187,-4.800000E-10,-323.791565
4005.468111,0.445000,0.443239,-0.060663,0.000188,1.400000E-10,-323.372749
4009.668563,0.446000,0.445192,-0.060857,0.000188,-1.220000E-9,-324.382299
4013.870173,0.447000,0.445192,-0.060780,0.000189,-1.320000E-9,-322.322896
4018.084821,0.448000,0.447206,-0.060687,0.000188,1.600000E-10,-322.129315
4022.284715,0.449000,0.447206,-0.060883,0.000189,-1.680000E-9,-322.639033
4026.477825,0.450000,0.449160,-0.060715,0.000189,-1.010000E-9,-321.758908
4030.679377,0.451000,0.449160,-0.060688,0.000189,-1.370000E-9,-320.628464
4034.874331,0.452000,0.451174,-0.060581,0.000189,-1.040000E-9,-319.879135
4039.073012,0.453000,0.451174,-0.060546,0.000190,-1.000000E-10,-318.967711
4043.279955,0.454000,0.453127,-0.060694,0.000190,-3.700000E-10,-318.878088
4047.446355,0.455000,0.453127,-0.060789,0.000191,-1.170000E-9,-318.451511
4051.655720,0.456000,0.455141,-0.060721,0.000191,-7.600000E-10,-318.082023
4055.848660,0.457000,0.455141,-0.060743,0.000191,-4.000000E-11,-318.105326
4060.029988,0.458000,0.457216,-0.060904,0.000191,-1.440000E-9,-318.493677
4064.234094,0.459000,0.457216,-0.060788,0.000192,3.300000E-10,-316.374384
4068.421914,0.460000,0.459169,-0.061023,0.000192,-2.150000E-9,-317.200617
4072.607884,0.461000,0.459169,-0.060759,0.000193,-8.000000E-10,-315.296467
4076.804833,0.462000,0.461184,-0.060762,0.000192,-1.300000E-10,-316.497333
4081.012778,0.463000,0.461184,-0.060896,0.000193,-4.400000E-10,-315.281976
4085.215019,0.464000,0.463137,-0.060974,0.000193,-7.900000E-10,-315.336127
4089.428312,0.465000,0.463137,-0.060979,0.000194,8.000000E-11,-314.007868
4093.616550,0.466000,0.465151,-0.061160,0.000194,-3.040000E-9,-314.951269
4097.805284,0.467000,0.465151,-0.060715,0.000195,4.300000E-10,-311.835008
4102.005974,0.468000,0.467165,-0.060964,0.000194,-1.180000E-9,-313.459831
4106.203250,0.469000,0.467165,-0.060901,0.000195,-1.990000E-9,-312.102782
4110.415163,0.470000,0.469118,-0.060675,0.000195,-1.290000E-9,-311.232630
4114.618317,0.471000,0.469118,-0.060582,0.000196,-7.000000E-11,-309.861454
4118.821077,0.472000,0.471132,-0.060743,0.000196,-1.140000E-9,-310.372378
4123.033314,0.473000,0.471132,-0.060688,0.000196,-1.300000E-9,-309.568583
4127.223904,0.474000,0.473146,-0.060598,0.000196,-9.400000E-10,-308.939229
4131.434636,0.475000,0.473146,-0.060580,0.000196,-1.110000E-9,-308.855214
4135.632696,0.476000,0.475100,-0.060524,0.000196,-4.500000E-10,-309.284531
4139.842409,0.477000,0.475100,-0.060603,0.000197,-2.500000E-10,-308.240778
4144.050892,0.478000,0.477114,-0.060725,0.000197,-1.100000E-10,-308.067162
4148.249493,0.479000,0.477114,-0.060874,0.000198,-9.400000E-10,-307.654429
4152.445108,0.480000,0.479067,-0.060853,0.000198,-1.870000E-9,-307.987844
4156.654995,0.481000,0.479067,-0.060649,0.000198,-1.430000E-9,-306.787410
4160.859011,0.482000,0.481081,-0.060536,0.000197,4.000000E-11,-306.877346
4165.048897,0.483000,0.481081,-0.060706,0.000198,1.900000E-10,-306.087672
4169.245731,0.484000,0.483095,-0.060916,0.000199,-9.400000E-10,-306.809964
4173.438064,0.485000,0.483095,-0.060900,0.000199,-4.400000E-10,-305.859239
4177.636175,0.486000,0.485109,-0.060980,0.000199,-1.800000E-10,-305.993980
4181.840176,0.487000,0.485109,-0.061105,0.000200,5.500000E-10,-305.612940
4186.020926,0.488000,0.487123,-0.061378,0.000200,-8.600000E-10,-306.552492
4190.231925,0.489000,0.487062,-0.061372,0.000201,-1.350000E-9,-305.501837
4194.426693,0.490000,0.489138,-0.061265,0.000201,-2.020000E-9,-304.869308
4198.631813,0.491000,0.489077,-0.061023,0.000202,-6.100000E-10,-302.481939
4202.835318,0.492000,0.491091,-0.061063,0.000202,-1.610000E-9,-302.675356
4207.019120,0.493000,0.491091,-0.060903,0.000202,-7.500000E-10,-301.169335
4211.220646,0.494000,0.493105,-0.060923,0.000202,-1.080000E-9,-301.445886
4215.434312,0.495000,0.493105,-0.060877,0.000203,-8.000000E-11,-300.507351
4219.642526,0.496000,0.495058,-0.061028,0.000203,3.000000E-11,-300.500848
4223.851393,0.497000,0.495058,-0.061209,0.000203,-7.000000E-10,-300.825058
4228.051022,0.498000,0.497072,-0.061234,0.000204,-6.900000E-10,-300.896696
4232.236682,0.499000,0.497072,-0.061259,0.000204,-1.130000E-9,-300.445812
4236.430930,0.500000,0.499086,-0.061207,0.000204,-1.220000E-9,-300.571048
